* Measurement data measured by REW V5.30.2
* Source: EXCL: Microphone (Umik-1  Gain: 18dB), MICROPHONE (Master Volume), L, volume: 0.540
* Format: 256k Log Swept Sine, 1 sweep at -20.0 dBFS with no timing reference
* Dated: Jan 19, 2024 11:38:02 AM
* REW Settings:
*  C-weighting compensation: Off
*  Target level: 75.0 dB
* Note: bad fan that came in unit 23; intake off, exhaust 100 pwm; with the volume on
* Measurement: Bad Fan in Unit 23
* Smoothing: 1/48 octave
* Frequency Step: 96 ppo
* Start Frequency: 20.0 Hz
*
* Freq(Hz) SPL(dB) Phase(degrees)
20.141602 59.239 166.9814
20.287556 58.028 165.0497
20.434568 56.438 163.5173
20.582645 54.268 163.1993
20.731796 51.211 166.0913
20.882027 48.632 -179.9307
21.033346 47.961 -108.7822
21.185762 48.759 -66.4415
21.339283 50.125 -59.5115
21.493916 51.720 -59.4482
21.649670 52.738 -61.1229
21.806553 52.969 -64.7239
21.964573 52.549 -69.4360
22.123737 51.464 -75.8658
22.284056 49.991 -86.5201
22.445536 48.645 -105.3152
22.608185 47.798 -149.2807
22.772013 48.529 163.3847
22.937029 50.726 139.4710
23.103241 52.883 127.9669
23.270657 54.486 120.3176
23.439285 55.658 114.7722
23.609137 56.396 110.2177
23.780218 56.749 106.2313
23.952539 56.764 102.8376
24.126110 56.432 99.6432
24.300938 55.749 97.0249
24.477032 54.681 94.6924
24.654402 53.146 93.2179
24.833057 51.092 92.9516
25.013008 48.319 95.4957
25.194263 45.157 108.0676
25.376831 43.541 163.0218
25.560722 44.035 -141.4662
25.745945 45.354 -128.1051
25.932510 46.844 -123.2927
26.120428 47.676 -119.1691
26.309708 47.912 -114.5540
26.500359 47.884 -107.6446
26.692390 47.778 -98.3679
26.885815 47.938 -88.3849
27.080641 48.317 -79.6247
27.276878 48.796 -75.0880
27.474539 49.169 -74.5308
27.673630 49.225 -79.1019
27.874165 49.053 -88.5220
28.076153 48.765 -106.0441
28.279604 48.961 -131.2773
28.484529 49.853 -161.1482
28.690941 51.191 175.3448
28.898848 52.655 158.2238
29.108261 53.750 145.7321
29.319191 54.391 135.7045
29.531651 54.490 126.6786
29.745649 53.987 118.5678
29.961199 52.821 109.8573
30.178310 50.831 100.5027
30.396996 48.466 85.3930
30.617264 46.809 28.5308
30.839128 47.111 -61.0285
31.062601 49.177 -80.2304
31.287693 50.792 -89.6089
31.514416 51.682 -96.9960
31.742783 51.849 -103.4330
31.972803 51.399 -109.0539
32.204491 50.385 -114.4711
32.437859 48.859 -119.2654
32.672916 46.850 -124.0659
32.909679 44.370 -128.8820
33.148155 41.396 -135.4693
33.388359 38.504 -147.9600
33.630306 36.979 147.4267
33.874004 38.785 62.1524
34.119469 42.025 44.8250
34.366711 44.893 34.0000
34.615746 47.063 24.7746
34.866585 48.523 16.7250
35.119244 49.261 8.8989
35.373734 49.218 1.8188
35.630066 48.279 -4.6752
35.888256 46.417 -11.3407
36.148315 43.858 -18.7965
36.410259 42.977 176.6705
36.674103 44.253 163.8348
36.939857 46.002 162.7356
37.207539 46.978 167.5710
37.477161 47.530 178.3940
37.748737 48.133 -165.5770
38.022282 49.074 -150.6438
38.297806 49.860 -142.5438
38.575329 50.050 -139.6901
38.854862 49.331 -140.5886
39.136421 47.518 -144.5594
39.420021 44.650 -151.9960
39.705673 42.097 133.5848
39.993397 40.901 38.3285
40.283207 40.655 31.1652
40.575115 40.100 40.3050
40.869141 41.277 155.9232
41.165295 43.421 169.5289
41.463596 44.965 168.1038
41.764057 45.049 165.1357
42.066696 44.527 170.3112
42.371529 45.902 -53.7231
42.678570 48.332 -47.2238
42.987835 50.193 -50.5469
43.299343 50.634 -54.7447
43.613110 49.759 -57.2283
43.929150 48.464 -43.4796
44.247478 49.268 69.9977
44.568115 51.377 79.3888
44.891075 52.890 76.2904
45.216373 53.101 71.3397
45.544029 51.954 66.6499
45.874062 49.708 66.1348
46.206486 47.576 121.4548
46.541317 47.564 -167.6742
46.878574 48.512 -171.2137
47.218277 48.617 174.6722
47.560440 48.214 143.4136
47.905083 48.755 67.4467
48.252224 50.332 19.9570
48.601879 51.736 -2.3499
48.954067 52.270 -19.2403
49.308807 51.764 -34.9770
49.666119 50.188 -50.9750
50.026020 47.587 -68.3918
50.388531 44.555 -94.9854
50.753666 42.660 94.7502
51.121449 42.310 72.0422
51.491894 41.925 55.2266
51.865025 40.503 40.6978
52.240860 38.046 27.5820
52.619419 35.806 7.8684
53.000721 36.584 -36.8103
53.384785 39.632 -71.7696
53.771633 42.462 -89.5109
54.161285 44.266 -101.4277
54.553761 44.994 -109.2402
54.949081 44.910 -112.6614
55.347263 44.785 -114.1160
55.748333 46.150 -124.4150
56.152309 49.722 144.6932
56.559212 54.017 84.3743
56.969063 57.713 64.7529
57.381886 60.408 47.9301
57.797699 62.049 31.0212
58.216526 62.642 13.5787
58.638386 62.185 -4.6047
59.063305 60.660 -23.9468
59.491302 58.071 -45.2155
59.922401 54.633 -72.0402
60.356625 51.222 126.2584
60.793995 49.118 66.0271
61.234531 48.358 16.4686
61.678261 48.078 -33.1228
62.125206 47.515 -68.0444
62.575390 46.191 -96.4651
63.028835 44.427 -138.9165
63.485569 43.554 158.8812
63.945610 44.052 138.0917
64.408989 44.815 142.9852
64.875725 45.534 165.8311
65.345840 46.456 -162.5562
65.819366 47.224 -139.2111
66.296318 47.195 -122.8921
66.776726 46.168 -107.2542
67.260620 44.654 -85.2042
67.748016 44.376 35.8412
68.238945 45.801 69.4653
68.733429 46.905 68.3369
69.231499 47.096 48.1556
69.733177 47.509 -50.0114
70.238495 48.294 -91.0491
70.747475 48.099 -106.2439
71.260139 46.683 -123.0787
71.776520 45.716 80.9434
72.296638 46.769 48.2372
72.820526 49.400 0.7981
73.348213 52.654 -49.8021
73.879723 55.332 -69.0278
74.415085 56.699 -78.0906
74.954330 56.513 -82.8955
75.497482 54.864 -78.7041
76.044571 52.564 -41.7747
76.595619 50.964 -3.7529
77.150665 49.664 -4.3988
77.709732 47.606 -26.3108
78.272850 45.198 -121.5420
78.840050 43.462 -172.6143
79.411354 42.586 169.4268
79.986801 42.650 149.4290
80.566422 43.561 115.8252
81.150238 44.500 79.8621
81.738289 44.581 56.2444
82.330597 43.549 48.6416
82.927200 42.668 92.3335
83.528122 43.472 113.1821
84.133400 45.222 38.9873
84.743065 46.970 -37.0852
85.357147 47.970 -71.8840
85.975677 48.546 -101.6787
86.598694 50.302 -77.8540
87.226227 53.139 -51.5957
87.858307 55.196 -60.3582
88.494965 55.538 -67.6553
89.136238 54.145 -64.7754
89.782158 51.600 -44.2388
90.432755 48.748 -29.5889
91.088066 46.701 -87.5125
91.748131 46.955 -119.0022
92.412979 48.552 -99.5168
93.082642 49.564 -88.1287
93.757156 48.992 -85.8018
94.436562 47.091 -70.4021
95.120888 45.485 26.8755
95.810173 45.169 20.3643
96.504456 45.758 -78.1655
97.203766 46.791 -167.4307
97.908142 47.310 153.1145
98.617622 47.075 118.3782
99.332245 47.479 97.2065
100.052048 50.224 -99.8806
100.777069 53.547 -103.7522
101.507339 55.523 -111.5940
102.242905 55.583 -116.6331
102.983795 54.091 -106.2163
103.730057 52.402 -82.4824
104.481728 51.354 -90.2925
105.238846 50.910 -97.8328
106.001450 51.857 -73.0303
106.769577 53.571 -87.2378
107.543274 54.940 -166.1404
108.322578 55.602 137.1108
109.107529 55.001 109.2874
109.898170 53.283 83.6855
110.694534 52.112 67.9702
111.496674 52.431 70.8186
112.304626 52.598 83.0112
113.118431 51.871 102.9700
113.938133 50.448 127.9417
114.763779 49.151 -104.0410
115.595406 48.552 -63.3381
116.433060 48.295 -27.7673
117.276779 49.157 -12.9980
118.126617 51.532 -83.2590
118.982613 53.872 -100.6648
119.844810 54.833 -99.1135
120.713257 54.309 -99.6704
121.587997 53.333 -140.4961
122.469070 53.125 145.4988
123.356529 52.740 122.6470
124.250420 51.177 93.2373
125.150787 49.119 48.9397
126.057678 48.424 178.7852
126.971146 49.215 165.1106
127.891228 49.651 150.6123
128.817978 49.125 138.2158
129.751450 48.155 148.2466
130.691681 47.495 160.9624
131.638733 46.921 137.2288
132.592636 47.352 112.1855
133.553452 49.733 159.1824
134.521240 52.662 -143.9502
135.496033 54.870 -153.0884
136.477890 56.124 171.9038
137.466858 56.395 149.0659
138.462997 55.491 158.0056
139.466354 53.887 -146.8979
140.476990 52.385 -124.6182
141.494949 51.989 108.4521
142.520279 52.605 112.5906
143.553040 52.719 112.6965
144.593277 52.228 114.4873
145.641052 52.650 145.1199
146.696426 53.948 148.6799
147.759445 54.893 144.8835
148.830170 54.800 138.7964
149.908661 53.737 142.8376
150.994965 52.569 155.0320
152.089142 52.120 -151.7515
153.191238 52.505 -145.6125
154.301331 52.605 -158.8291
155.419464 52.201 -165.9531
156.545700 52.121 -170.9351
157.680099 52.789 -146.7854
158.822708 54.715 -148.0146
159.973602 58.687 163.0813
161.132843 63.953 -90.4167
162.300476 69.219 -1.5469
163.476578 73.757 168.8655
164.661194 76.970 -166.8003
165.854401 78.205 -169.5630
167.056244 77.080 -174.8062
168.266800 73.953 -171.8115
169.486130 69.560 39.9561
170.714294 64.977 -152.1973
171.951355 61.838 -160.7842
173.197388 60.393 -172.0981
174.452454 59.160 -163.6589
175.716614 57.825 -123.5024
176.989929 56.995 -49.0334
178.272476 56.137 -49.5128
179.564316 54.793 149.0864
180.865509 54.474 113.7896
182.176132 55.991 38.2476
183.496262 57.508 -44.7988
184.825958 57.695 -62.4785
186.165283 56.614 -81.1799
187.514313 55.067 -105.0669
188.873123 53.357 -120.5369
190.241776 52.450 -141.7622
191.620346 53.352 -141.9753
193.008911 55.138 -36.1172
194.407532 56.653 -19.3599
195.816284 57.485 -43.7451
197.235245 58.044 -62.3516
198.664490 58.256 4.5337
200.104095 58.047 122.2568
201.554138 57.290 175.4507
203.014679 57.016 -102.9895
204.485809 58.631 -80.5864
205.967590 60.840 -46.4244
207.460114 62.311 -1.6246
208.963455 62.609 0.4785
210.477692 61.800 -38.6090
212.002899 61.025 -26.0122
213.539154 60.870 -9.6744
215.086548 60.096 -38.4471
216.645157 58.379 -151.7583
218.215057 56.855 149.7349
219.796341 56.516 124.0303
221.389069 56.815 134.2305
222.993347 56.431 150.1228
224.609253 55.608 140.7227
226.236862 55.315 18.6453
227.876266 55.040 -8.3494
229.527557 53.778 -22.1316
231.190811 51.878 -10.5295
232.866119 50.631 30.4382
234.553558 49.931 45.3970
236.253235 49.992 -66.0540
237.965225 51.575 -37.7786
239.689621 53.987 -1.8223
241.426514 55.724 -3.3755
243.175995 55.760 -33.5632
244.938141 54.440 -60.2214
246.713058 53.029 -54.8945
248.500839 51.823 -74.7605
250.301575 50.485 0.2375
252.115356 49.141 28.9299
253.942291 48.041 36.1414
255.782455 47.267 14.3049
257.635956 46.698 3.5862
259.502899 46.643 27.8281
261.383362 46.236 22.5100
263.277466 45.001 17.6814
265.185272 44.020 0.9312
267.106903 44.556 -149.5667
269.042480 45.884 -170.4976
270.992065 46.645 -156.8230
272.955780 46.511 -161.2961
274.933716 45.771 -151.6182
276.925995 45.359 -132.5859
278.932709 46.088 -25.2571
280.953979 47.081 37.5349
282.989899 47.492 37.6682
285.040558 46.846 37.2109
287.106079 45.426 -93.7900
289.186554 44.564 -89.8672
291.282104 45.207 -109.8806
293.392853 46.453 -140.1433
295.518890 47.540 -120.7798
297.660339 48.045 -7.6738
299.817322 47.578 60.1689
301.989929 46.552 111.3887
304.178284 45.537 133.5088
306.382477 44.652 150.4265
308.602661 44.149 166.3164
310.838928 43.722 142.5415
313.091400 43.119 -29.6790
315.360199 43.494 -95.6016
317.645416 45.381 147.3989
319.947205 47.868 -97.6768
322.265686 51.323 -71.1768
324.600952 55.929 -83.8215
326.953156 60.483 10.9263
329.322388 63.853 34.7285
331.708801 65.198 37.9683
334.112488 64.054 35.7258
336.533600 60.819 4.0461
338.972260 56.403 -47.3044
341.428589 52.309 127.2061
343.902710 50.060 123.9824
346.394775 49.154 116.5718
348.904907 48.620 153.4592
351.433228 48.325 -155.0095
353.979858 49.115 150.0703
356.544952 50.321 125.8457
359.128632 50.864 106.3706
361.731018 51.261 93.8491
364.352264 51.642 70.2251
366.992523 51.501 -78.0403
369.651917 50.320 -77.8850
372.330566 48.915 -70.2092
375.028625 49.425 8.5884
377.746246 50.566 25.9929
380.483551 50.375 29.3486
383.240692 49.356 -11.2625
386.017822 48.784 -65.0703
388.815063 48.445 -127.0237
391.632568 47.656 178.8442
394.470490 46.817 156.1707
397.328979 46.755 39.8030
400.208191 46.906 -37.9839
403.108276 46.257 -132.1938
406.029358 45.069 -151.6377
408.971619 44.100 -115.7915
411.935181 43.747 -94.4807
414.920227 43.650 -130.9482
417.926910 43.446 -137.8845
420.955383 43.252 -151.4707
424.005798 43.195 -176.3364
427.078308 43.510 -85.5337
430.173096 44.308 -75.9695
433.290314 45.102 -73.5654
436.430115 45.635 -70.9753
439.592682 46.512 -56.1807
442.778137 48.046 -27.5059
445.986694 49.320 12.7246
449.218506 49.622 -4.1399
452.473724 48.775 -20.8643
455.752533 47.233 -26.9839
459.055115 45.489 -27.1987
462.381622 44.480 -10.1987
465.732239 44.470 81.2063
469.107117 44.575 116.0857
472.506470 45.224 15.7336
475.930450 46.573 -4.2173
479.379242 47.643 -26.2727
482.853027 48.140 -48.8130
486.351990 48.458 -29.4150
489.876282 49.031 59.2371
493.426117 49.767 -39.2915
497.001678 50.399 -118.9775
500.603149 50.639 -129.8997
504.230713 50.693 -131.1743
507.884583 50.565 -141.4839
511.564911 50.096 -153.8796
515.271912 49.596 -155.0996
519.005798 49.414 -147.8870
522.766724 49.409 -138.7166
526.554932 49.300 -129.7336
530.370544 48.934 -128.7141
534.213806 48.606 -122.8977
538.084961 48.747 -108.7043
541.984131 48.728 -98.6121
545.911560 48.596 -80.9600
549.867432 49.594 -49.2642
553.851990 51.178 -41.2891
557.865417 52.413 -45.4089
561.907959 52.846 -47.7234
565.979797 52.384 -47.6926
570.081116 51.132 -51.6099
574.212158 49.561 -47.5439
578.373108 48.868 -2.3132
582.564209 49.851 43.9592
586.785706 51.206 51.2375
591.037781 52.128 44.3896
595.320679 52.293 38.5984
599.634644 51.441 49.1396
603.979858 49.922 74.5706
608.356567 48.684 91.3965
612.764954 49.042 118.1826
617.205322 51.594 164.4929
621.677856 54.662 179.0308
626.182800 56.959 176.6567
630.720398 58.113 174.8232
635.290833 58.348 170.8250
639.894409 57.980 168.0771
644.531372 57.091 166.6479
649.201904 55.753 162.7632
653.906311 54.801 -173.6802
658.644775 55.724 -114.5757
663.417603 57.336 -111.9084
668.224976 58.244 -119.3733
673.067200 58.331 -133.4465
677.944519 57.506 -154.4333
682.857178 55.735 -170.2356
687.805420 53.618 -168.6047
692.789551 52.478 -168.3994
697.809814 52.171 165.7739
702.866455 51.709 136.9343
707.959717 51.462 111.5422
713.089905 52.105 89.7048
718.257263 52.822 72.2808
723.462036 52.564 82.0950
728.704529 51.342 168.6272
733.985046 49.867 -179.5283
739.303833 49.529 163.3628
744.661133 50.205 134.2507
750.057251 50.882 118.6826
755.492493 51.693 111.2134
760.967102 53.078 98.0530
766.481384 54.707 63.6926
772.035645 55.857 37.1538
777.630127 55.976 27.7278
783.265137 55.115 24.4607
788.940979 54.370 33.4868
794.657959 54.658 44.8831
800.416382 55.270 53.3271
806.216553 55.560 51.9656
812.058716 55.401 55.4324
817.943237 54.960 67.6648
823.870361 54.662 77.8613
829.840454 55.197 161.6570
835.853821 56.231 176.9788
841.910767 56.810 -179.3843
848.011597 56.731 178.8816
854.156616 55.745 179.6633
860.346191 54.174 -165.2661
866.580627 53.470 -114.5203
872.860229 53.999 -85.8779
879.185364 54.827 -70.2441
885.556274 55.653 -56.0542
891.973389 56.337 -42.9978
898.437012 56.659 -27.6399
904.947449 56.711 -10.5017
911.505066 56.496 1.8779
918.110229 55.703 12.7014
924.763245 54.551 42.5955
931.464478 54.670 103.7039
938.214233 55.843 113.8262
945.012939 56.448 113.6685
951.860901 56.107 119.9683
958.758484 55.262 129.7505
965.706055 54.235 129.3750
972.703979 52.803 116.8999
979.752563 51.949 6.5422
986.852234 52.920 -38.9011
994.003357 54.642 -34.2322
1001.206299 55.880 -22.6501
1008.461426 56.146 -15.8833
1015.769165 55.840 2.9512
1023.129822 56.166 39.1125
1030.543823 56.520 47.6443
1038.011597 55.680 46.1433
1045.533447 53.872 55.3037
1053.109863 52.202 84.1628
1060.741089 51.822 140.2588
1068.427612 52.647 177.1133
1076.169922 53.647 -162.6021
1083.968262 54.523 -151.7297
1091.823120 54.943 -146.8875
1099.734863 55.059 -140.7251
1107.703979 54.848 -135.9146
1115.730835 54.293 -123.8821
1123.815918 54.011 -118.7593
1131.959595 53.865 -130.2051
1140.162231 53.718 -145.6968
1148.424316 53.796 -165.2458
1156.746216 54.332 173.6353
1165.128418 54.881 152.1821
1173.571411 55.294 116.7637
1182.075562 56.050 59.4646
1190.641357 57.332 24.8008
1199.269287 58.407 6.7026
1207.959717 58.543 -3.5522
1216.713135 57.599 -8.9343
1225.529907 56.415 -3.1729
1234.410645 56.434 115.2588
1243.355713 56.960 113.3926
1252.365601 56.527 117.2808
1261.440796 55.774 144.0532
1270.581665 56.121 -174.5271
1279.788818 57.872 -119.1907
1289.062744 59.288 -112.7275
1298.403809 59.291 -112.0205
1307.812622 57.996 -104.8628
1317.289551 56.596 -91.9360
1326.835205 57.611 93.7417
1336.449951 60.152 90.0093
1346.134399 61.593 84.5137
1355.889038 61.761 90.9453
1365.714355 62.069 123.5667
1375.610840 62.959 142.1348
1385.579102 63.197 143.6655
1395.619629 62.099 135.9619
1405.732910 59.668 115.1685
1415.919434 57.551 26.1829
1426.179810 58.120 1.5037
1436.514526 59.674 6.1257
1446.924072 61.003 21.6487
1457.409058 61.920 30.6238
1467.970093 61.718 23.7458
1478.607666 60.272 42.4871
1489.322266 58.364 113.2046
1500.114502 56.442 90.6580
1510.984985 54.846 31.5693
1521.934204 53.794 -9.7610
1532.962769 53.859 2.6799
1544.071289 55.982 68.4084
1555.260254 58.540 94.9346
1566.530273 60.162 104.3164
1577.881958 60.831 118.9058
1589.315918 60.697 134.6094
1600.832764 59.638 150.2378
1612.433105 58.302 -154.7561
1624.117432 58.295 -90.7690
1635.886475 59.054 -67.4871
1647.740723 59.634 -30.1018
1659.680908 60.360 4.7714
1671.707642 60.902 21.6182
1683.821533 60.646 27.2620
1696.023193 59.334 24.9805
1708.313232 57.712 0.8137
1720.692383 56.552 -42.9332
1733.161255 57.237 -38.4137
1745.720459 59.538 -16.0226
1758.370728 61.363 -14.2721
1771.112549 61.662 -30.1760
1783.946777 60.789 -168.2935
1796.874023 59.588 112.6902
1809.894897 58.387 92.6926
1823.010132 58.233 48.0029
1836.220459 59.295 -3.7075
1849.526489 60.944 -5.1951
1862.928955 62.438 -2.8181
1876.428467 62.868 -7.3713
1890.025879 61.770 -22.5254
1903.721802 59.388 -78.4211
1917.516968 57.331 151.6057
1931.412109 56.948 130.9636
1945.407959 57.584 -68.7173
1959.505127 58.029 -97.2363
1973.704468 57.412 -146.7271
1988.006714 57.154 92.7683
2002.412598 57.395 2.1577
2016.922852 56.939 -59.5132
2031.538330 56.255 -53.3613
2046.259644 56.907 -18.1746
2061.087646 58.276 0.3845
2076.023193 59.829 41.4768
2091.066895 61.554 86.5974
2106.219727 62.417 97.1743
2121.482178 61.736 103.4963
2136.855225 60.127 147.2312
2152.339844 59.257 -179.5947
2167.936523 58.997 165.7451
2183.646240 58.523 136.5491
2199.469727 58.226 130.4167
2215.407959 58.166 134.6238
2231.461670 57.460 156.0439
2247.631836 56.762 -127.1614
2263.919189 56.854 -136.3706
2280.324463 58.332 108.1611
2296.848633 60.528 95.9624
2313.492432 61.895 98.9817
2330.256836 61.647 95.1472
2347.142822 60.480 74.1584
2364.151123 60.486 7.6118
2381.282715 61.533 -7.3623
2398.538574 61.577 -8.0198
2415.919434 60.219 -4.4636
2433.426270 58.744 126.9346
2451.059814 58.522 160.6379
2468.821289 58.359 166.8303
2486.711426 58.153 -119.8301
2504.731201 58.683 -101.2041
2522.881592 58.728 -158.0581
2541.163330 58.377 115.0774
2559.577637 58.586 90.9863
2578.125488 60.062 107.5051
2596.807617 61.706 114.8894
2615.625244 62.243 122.0034
2634.579102 61.893 132.3730
2653.670410 61.046 119.1162
2672.899902 61.162 35.3030
2692.268799 63.413 50.0388
2711.778076 66.184 79.3745
2731.428711 67.752 81.5408
2751.221680 67.877 79.6743
2771.158203 67.085 70.3887
2791.239258 65.631 49.4868
2811.465820 63.928 41.9426
2831.838867 63.086 39.0930
2852.359619 62.766 2.0537
2873.029053 62.868 -30.8250
2893.848145 63.809 -23.3499
2914.818115 64.503 -8.1648
2935.940186 63.918 0.3259
2957.215332 62.075 -3.9573
2978.644531 60.510 -80.2285
3000.229004 59.829 -102.1582
3021.969971 59.359 -79.0071
3043.868408 58.812 -71.9512
3065.925537 57.733 -71.5273
3088.142578 56.161 -51.5200
3110.520508 55.439 3.4910
3133.060547 56.700 122.3271
3155.763916 57.816 127.2520
3178.631836 57.578 111.4185
3201.665527 57.695 51.7183
3224.866211 59.002 39.2073
3248.234863 60.357 48.6323
3271.772949 61.291 24.5728
3295.481445 61.186 -55.7087
3319.361816 60.373 7.1406
3343.415283 60.139 43.3596
3367.643066 60.025 88.3503
3392.046387 59.405 109.1812
3416.626465 58.254 78.6946
3441.384766 57.861 48.8618
3466.322510 58.010 41.8630
3491.440918 58.954 22.0891
3516.741455 60.385 -2.5552
3542.225098 60.429 -8.2825
3567.893555 58.914 47.7766
3593.748047 57.927 81.6509
3619.789795 58.683 -7.4727
3646.020264 59.708 2.7493
3672.440918 59.660 14.1951
3699.052979 58.620 -0.4319
3725.857910 58.787 -15.2339
3752.856934 60.159 10.8853
3780.051758 61.100 59.7605
3807.443604 61.460 139.1226
3835.033936 60.822 144.2280
3862.824219 59.376 66.5557
3890.815918 58.911 50.4529
3919.010254 59.515 72.1719
3947.408936 59.975 76.6838
3976.013428 59.610 85.0898
4004.825195 58.301 73.1799
4033.845703 57.384 53.8586
4063.076660 58.376 43.2202
4092.519287 59.781 33.8979
4122.175293 60.759 21.4983
4152.046387 61.274 8.5325
4182.133789 61.455 -0.4707
4212.439453 62.196 -30.2234
4242.964355 63.362 -49.4854
4273.710449 63.631 -49.1980
4304.679688 62.750 -40.7800
4335.873047 61.203 -39.2070
4367.292480 59.477 134.6086
4398.939453 59.026 143.7607
4430.815918 59.487 132.0627
4462.923340 59.971 67.1943
4495.263672 60.433 57.9788
4527.838379 60.569 106.5291
4560.648926 60.521 125.8425
4593.697266 60.319 69.1880
4626.984863 60.482 117.1582
4660.513672 60.377 137.5378
4694.285645 59.583 8.2654
4728.302246 58.943 24.4885
4762.565430 58.618 79.0239
4797.077148 59.164 98.4929
4831.838867 61.078 69.0110
4866.852539 62.311 58.6753
4902.119629 61.657 67.6514
4937.642578 59.874 41.7068
4973.422852 58.512 -63.0176
5009.462402 57.932 -84.8394
5045.763184 57.887 -85.5784
5082.326660 58.061 -30.6050
5119.155273 57.700 28.3340
5156.250977 57.121 92.7156
5193.615234 57.544 103.4724
5231.250488 58.920 104.0137
5269.158203 59.969 103.1187
5307.340820 60.252 67.9675
5345.799805 60.329 54.3420
5384.537598 61.016 37.0469
5423.556152 62.144 27.6545
5462.857422 62.207 21.1628
5502.443359 60.906 -14.3647
5542.316406 59.728 -47.4182
5582.478516 59.403 -57.5364
5622.931641 60.011 -65.1428
5663.677734 60.771 -82.1418
5704.719238 60.573 -96.1335
5746.058105 59.319 -104.5647
5787.696289 57.795 -167.7756
5829.636230 57.242 157.2170
5871.880371 57.665 -78.3860
5914.430664 57.702 -65.9426
5957.289062 56.637 -42.3416
6000.458008 55.045 59.5984
6043.939941 54.436 16.7205
6087.736816 55.295 -17.1404
6131.851074 56.069 -1.9133
6176.285156 55.509 39.2646
6221.041016 54.441 94.5112
6266.121094 55.156 143.4521
6311.527832 56.917 -129.6763
6357.263672 57.353 -157.8774
6403.331055 56.402 142.6211
6449.732422 55.895 11.0557
6496.469727 57.296 2.5540
6543.545898 59.229 5.8589
6590.962891 59.994 3.0276
6638.723633 59.812 16.3025
6686.830566 59.825 60.5840
6735.286133 59.622 86.5173
6784.092773 59.212 92.6179
6833.252930 58.959 77.8416
6882.769531 59.132 50.9329
6932.645020 60.018 14.6675
6982.881836 60.915 -20.2595
7033.482910 60.974 -15.2681
7084.450195 60.579 -17.4192
7135.787109 59.830 -60.1294
7187.496094 58.955 -30.8103
7239.579590 58.601 42.8240
7292.040527 59.220 77.7676
7344.881836 60.624 -45.6538
7398.105957 62.089 59.4021
7451.715820 62.683 116.7583
7505.713867 61.825 110.6460
7560.103516 60.107 80.0044
7614.887207 58.458 76.1023
7670.067871 57.691 51.5713
7725.648438 57.916 49.4724
7781.631836 58.037 6.6509
7838.020508 57.410 -19.4021
7894.817871 56.201 -32.9163
7952.026855 55.404 -143.0146
8009.650391 56.102 143.5132
8067.691406 57.959 80.5605
8126.153320 59.791 67.8975
8185.038574 61.102 34.6182
8244.350586 61.849 -1.1279
8304.092773 62.340 -9.7703
8364.267578 62.430 -19.4666
8424.878906 61.673 -42.7292
8485.928711 60.345 -51.8892
8547.420898 59.142 -56.7212
8609.359375 58.112 -63.4297
8671.746094 57.724 0.1204
8734.584961 58.339 58.0320
8797.878906 59.145 78.4929
8861.631836 60.019 98.6531
8925.846680 60.120 4.8357
8990.527344 59.594 -24.0410
9055.676758 59.373 -16.8672
9121.297852 58.940 -20.1775
9187.394531 58.503 -16.2317
9253.969727 58.487 -22.9980
9321.027344 58.490 46.2490
9388.571289 58.781 50.3687
9456.604492 59.353 28.6638
9525.130859 59.798 4.4719
9594.154297 60.142 -20.8191
9663.677734 59.812 -45.1252
9733.705078 58.344 -67.9082
9804.239258 56.978 -110.6836
9875.285156 56.765 164.7285
9946.845703 56.780 84.6907
10018.924805 56.122 48.3599
10091.526367 55.598 -76.7761
10164.653320 56.522 145.3142
10238.310547 58.359 109.2405
10312.501953 59.612 76.7119
10387.230469 59.801 36.3298
10462.500977 59.711 4.6611
10538.316406 59.878 -15.2019
10614.681641 59.780 -21.0840
10691.599609 59.296 -11.6567
10769.075195 58.945 4.6990
10847.112305 58.858 -10.6316
10925.714844 58.753 -36.8203
11004.886719 57.876 -64.0195
11084.632812 56.684 -102.5505
11164.957031 55.967 171.8486
11245.863281 55.974 45.7637
11327.355469 56.003 22.2588
11409.438477 55.666 26.1064
11492.116211 56.094 13.8906
11575.392578 56.945 -7.5078
11659.272461 57.217 -24.0083
11743.760742 56.757 -38.9824
11828.861328 55.676 -41.2891
11914.578125 54.498 -6.5767
12000.916016 54.333 -10.8052
12087.879883 54.960 32.2759
12175.473633 56.076 17.8809
12263.702148 57.032 4.1406
12352.570312 57.559 -4.9717
12442.082031 57.062 -26.6123
12532.242188 56.004 -45.0273
12623.055664 55.276 -57.9897
12714.527344 54.481 -65.2285
12806.662109 53.975 13.6855
12899.464844 53.798 10.6050
12992.939453 53.664 -15.5186
13087.091797 53.493 -31.6445
13181.925781 53.137 -48.9404
13277.447266 52.664 -65.5918
13373.661133 52.587 -67.3037
13470.572266 52.580 -15.9868
13568.185547 52.759 8.7725
13666.505859 53.135 -24.4219
13765.539062 52.923 -33.5811
13865.290039 52.096 -47.4126
13965.763672 51.265 -69.3867
14066.965820 50.906 -76.8643
14168.900391 51.164 -19.0918
14271.574219 51.281 -17.3467
14374.992188 51.533 -37.8330
14479.159180 52.340 -44.6387
14584.081055 52.507 -59.7148
14689.763672 51.868 -58.9336
14796.211914 51.247 -45.5605
14903.431641 51.296 5.3325
15011.427734 51.291 -22.8984
15120.207031 50.670 -52.4424
15229.774414 49.690 -73.3423
15340.135742 49.355 -90.1113
15451.296875 49.436 49.9026
15563.263672 49.561 18.7754
15676.041016 50.027 28.5840
15789.635742 50.935 26.5850
15904.053711 51.442 14.1816
16019.300781 51.545 3.1626
16135.382812 51.745 -3.8398
16252.306641 51.877 -8.9370
16370.077148 51.887 -14.5186
16488.701172 51.600 -38.6650
16608.185547 51.198 -54.2100
16728.535156 50.843 -50.4570
16849.757812 50.211 -24.7017
16971.857422 50.223 0.8984
17094.841797 51.100 9.8491
17218.718750 52.074 2.8154
17343.492188 52.635 -19.6060
17469.169922 52.393 -43.3936
17595.757812 51.766 -50.2676
17723.263672 51.850 -47.5498
17851.693359 52.274 -65.7266
17981.054688 51.673 -83.9302
18111.353516 50.465 -89.6318
18242.595703 49.718 -94.9712
18374.789062 49.603 -110.5527
18507.939453 49.861 25.1416
18642.054688 49.903 32.2598
18777.142578 49.223 -0.3447
18913.208984 48.500 -33.7119
19050.261719 47.868 -56.8730
19188.308594 47.647 -22.9404
19327.355469 47.983 19.7412
19467.410156 48.100 26.1553
19608.478516 48.008 43.4658
19750.570312 47.877 47.2061
19893.691406 47.826 36.9629
20037.849609 0.000 18.5633
