* Measurement data measured by REW V5.30.2
* Source: EXCL: Microphone (Umik-1  Gain: 18dB), MICROPHONE (Master Volume), L, volume: 0.540
* Format: 256k Log Swept Sine, 1 sweep at -20.0 dBFS with no timing reference
* Dated: Jan 29, 2024 4:02:02 PM
* REW Settings:
*  C-weighting compensation: Off
*  Target level: 75.0 dB
* Note: sweep taken 0.5m from microphone, fan was run in oven for roughly a week at ~90degC; 
* Measurement: Bad Fan 4 -- Post-Oven
* Smoothing: 1/48 octave
* Frequency Step: 96 ppo
* Start Frequency: 20.0 Hz
*
* Freq(Hz) SPL(dB) Phase(degrees)
20.141602 47.350 157.7612
20.287556 49.151 140.4365
20.434568 51.109 134.1192
20.582645 52.633 129.5642
20.731796 53.473 125.8641
20.882027 53.914 120.8324
21.033346 54.028 113.1161
21.185762 54.031 102.3250
21.339283 54.252 87.0434
21.493916 54.744 67.4688
21.649670 55.650 48.4258
21.806553 56.981 31.3886
21.964573 58.342 18.6492
22.123737 59.475 8.5901
22.284056 60.345 0.2467
22.445536 60.829 -6.8000
22.608185 60.911 -13.9187
22.772013 60.532 -20.8098
22.937029 59.672 -29.2719
23.103241 58.395 -39.8802
23.270657 56.656 -56.9700
23.439285 55.368 -87.5171
23.609137 55.481 -129.9749
23.780218 56.457 -160.0304
23.952539 57.618 -175.1485
24.126110 58.615 175.7466
24.300938 58.892 171.1885
24.477032 58.442 168.9354
24.654402 57.161 171.0637
24.833057 55.439 -178.9609
25.013008 54.731 -149.4991
25.194263 55.395 -101.0040
25.376831 57.117 -77.6309
25.560722 59.275 -67.8273
25.745945 60.783 -61.9272
25.932510 61.632 -57.0304
26.120428 62.042 -50.8555
26.309708 62.145 -42.7744
26.500359 62.247 -32.4410
26.692390 62.446 -20.3609
26.885815 62.873 -9.3313
27.080641 63.389 -0.1970
27.276878 63.772 5.7695
27.474539 63.886 9.6231
27.673630 63.591 11.5426
27.874165 62.817 12.5326
28.076153 61.514 12.8155
28.279604 59.613 13.1967
28.484529 57.083 14.2461
28.690941 53.916 16.3256
28.898848 50.488 19.3935
29.108261 48.197 14.1549
29.319191 48.440 -4.6497
29.531651 51.271 -21.8270
29.745649 54.270 -31.1896
29.961199 56.593 -37.4119
30.178310 58.098 -42.8381
30.396996 58.781 -48.0830
30.617264 58.648 -53.8228
30.839128 57.609 -59.8562
31.062601 55.659 -68.1600
31.287693 53.250 -82.2108
31.514416 51.734 172.4626
31.742783 52.804 118.2230
31.972803 54.244 107.2901
32.204491 54.911 99.1370
32.437859 54.368 92.5961
32.672916 52.636 87.0390
32.909679 50.109 84.4541
33.148155 49.168 -156.4717
33.388359 50.171 -132.5339
33.630306 52.070 -143.0354
33.874004 53.429 -160.9807
34.119469 54.594 172.7928
34.366711 56.049 140.6514
34.615746 57.774 115.1784
34.866585 59.385 98.2955
35.119244 60.546 86.6996
35.373734 61.090 79.0341
35.630066 60.971 73.9509
35.888256 60.152 71.1543
36.148315 58.582 71.8257
36.410259 56.312 78.5119
36.674103 53.954 101.1952
36.939857 52.687 150.3528
37.207539 53.095 -177.8356
37.477161 53.924 -164.1270
37.748737 54.227 -155.5347
38.022282 53.810 -146.6239
38.297806 52.863 -134.5349
38.575329 51.717 -117.3337
38.854862 50.692 -95.7281
39.136421 49.965 -75.4416
39.420021 49.177 -60.1531
39.705673 47.905 -47.7422
39.993397 45.998 -33.2174
40.283207 43.897 -0.1956
40.575115 43.276 68.2537
40.869141 44.059 99.3010
41.165295 44.838 113.7460
41.463596 44.937 128.6467
41.764057 44.817 153.3865
42.066696 45.457 -174.0590
42.371529 46.676 -153.4251
42.678570 47.575 -144.9357
42.987835 47.606 -142.4777
43.299343 46.541 -143.1135
43.613110 44.310 -145.8664
43.929150 41.015 -153.0885
44.247478 37.734 151.7361
44.568115 37.212 98.9203
44.891075 39.516 114.1319
45.216373 42.394 128.9325
45.544029 44.588 135.5411
45.874062 45.699 137.5723
46.206486 45.664 138.0956
46.541317 44.513 139.4465
46.878574 42.325 144.5597
47.218277 39.404 160.2477
47.560440 36.995 -149.6607
47.905083 37.249 -94.3326
48.252224 39.580 -81.6762
48.601879 42.254 -86.3024
48.954067 44.594 -98.3998
49.308807 46.393 -112.0688
49.666119 47.500 -123.8859
50.026020 47.789 -132.3947
50.388531 47.206 -136.4057
50.753666 45.883 -133.6706
51.121449 44.322 -121.9590
51.491894 43.197 -107.1976
51.865025 42.554 -101.6017
52.240860 41.866 -107.8534
52.619419 40.874 -123.0182
53.000721 39.648 -140.6668
53.384785 38.184 -152.6807
53.771633 36.329 -155.6409
54.161285 34.251 -145.5536
54.553761 33.524 -46.2085
54.949081 35.069 -7.2280
55.347263 37.105 -6.3320
55.748333 39.580 -35.6093
56.152309 42.908 176.4389
56.559212 45.883 165.4622
56.969063 47.553 154.5983
57.381886 47.912 139.3837
57.797699 47.930 100.3659
58.216526 49.070 3.1078
58.638386 50.742 -26.2372
59.063305 51.524 -39.5962
59.491302 50.888 -49.5665
59.922401 48.876 -60.3210
60.356625 46.411 -108.2408
60.793995 45.408 142.6609
61.234531 45.526 136.2631
61.678261 44.973 139.1253
62.125206 43.217 148.2842
62.575390 40.665 168.1197
63.028835 39.101 -55.5150
63.485569 40.002 -11.2340
63.945610 41.587 -4.1945
64.408989 42.757 -15.6295
64.875725 44.322 -92.2271
65.345840 46.356 -147.9770
65.819366 47.532 -163.4023
66.296318 47.308 -167.8840
66.776726 46.849 -123.5730
67.260620 47.696 -66.6334
67.748016 48.717 -77.5018
68.238945 49.062 -117.2145
68.733429 49.235 172.8154
69.231499 49.082 138.7220
69.733177 47.902 129.2051
70.238495 46.147 156.1854
70.747475 45.228 -162.5927
71.260139 44.617 -163.7596
71.776520 43.642 149.6871
72.296638 43.016 26.3364
72.820526 42.257 8.0787
73.348213 41.110 15.8503
73.879723 40.666 162.1739
74.415085 40.715 173.5432
74.954330 41.288 -138.6233
75.497482 42.301 -108.5632
76.044571 42.387 -98.1397
76.595619 41.244 -81.3648
77.150665 39.572 -52.2681
77.709732 37.673 -29.1732
78.272850 35.788 -7.9102
78.840050 36.102 -8.3137
79.411354 38.597 -55.1211
79.986801 40.669 -79.6589
80.566422 41.130 -91.5953
81.150238 39.792 -93.4994
81.738289 37.370 -73.9771
82.330597 35.569 -58.4491
82.927200 35.784 -100.2155
83.528122 37.555 -124.1273
84.133400 39.780 -113.9432
84.743065 41.663 -103.9059
85.357147 42.338 -107.7693
85.975677 41.492 -126.8381
86.598694 39.772 167.1951
87.226227 38.357 95.3417
87.858307 38.532 -92.3369
88.494965 40.399 -109.4098
89.136238 42.150 -113.9451
89.782158 42.894 -117.8257
90.432755 42.420 -124.2434
91.088066 40.819 -129.4633
91.748131 39.212 -125.8391
92.412979 39.306 -131.6806
93.082642 40.279 -163.3325
93.757156 40.606 158.7106
94.436562 39.773 135.8344
95.120888 38.385 132.1435
95.810173 39.104 90.0049
96.504456 41.909 -10.1449
97.203766 44.043 -22.1066
97.908142 44.333 -37.3809
98.617622 42.773 -56.2340
99.332245 40.282 -64.7772
100.052048 38.843 -37.8898
100.777069 39.131 -62.9159
101.507339 39.381 -82.0553
102.242905 38.964 -97.8931
102.983795 38.515 -114.5000
103.730057 39.182 40.0523
104.481728 40.653 17.5693
105.238846 41.552 -16.6511
106.001450 41.846 -58.3765
106.769577 42.225 -81.2824
107.543274 42.736 -82.4064
108.322578 42.772 -72.3080
109.107529 42.281 -50.4453
109.898170 42.182 -24.9050
110.694534 43.736 55.8834
111.496674 46.547 142.9961
112.304626 48.775 135.0518
113.118431 49.683 114.5443
113.938133 49.341 89.6824
114.763779 48.065 73.6182
115.595406 46.904 84.3533
116.433060 47.809 -138.1386
117.276779 50.806 -148.0775
118.126617 54.716 -172.4638
118.982613 58.000 170.4848
119.844810 59.616 159.9789
120.713257 59.197 153.8553
121.587997 56.944 154.8588
122.469070 53.509 153.4417
123.356529 49.758 132.9594
124.250420 46.463 133.1059
125.150787 44.237 -169.0459
126.057678 42.955 -129.1176
126.971146 41.417 -110.6403
127.891228 39.923 -19.5816
128.817978 40.705 -21.5334
129.751450 43.700 -37.0782
130.691681 46.248 -39.5102
131.638733 46.975 -50.7809
132.592636 45.777 -69.7693
133.553452 43.740 -87.8837
134.521240 42.269 -94.9966
135.496033 40.695 -97.9576
136.477890 38.620 -72.3690
137.466858 37.782 -21.4413
138.462997 38.359 -26.1783
139.466354 39.635 -121.7902
140.476990 41.636 -131.6720
141.494949 43.119 -119.5567
142.520279 43.343 -113.3240
143.553040 43.214 49.6583
144.593277 43.273 58.0032
145.641052 42.698 60.6621
146.696426 40.803 59.1868
147.759445 37.839 81.9393
148.830170 35.068 54.1875
149.908661 34.418 167.2141
150.994965 35.731 -143.0471
152.089142 36.913 -132.0727
153.191238 37.702 -123.4106
154.301331 39.038 -130.3505
155.419464 40.883 -136.4241
156.545700 42.571 -84.5004
157.680099 43.825 -16.6886
158.822708 44.238 -12.6843
159.973602 44.497 12.2227
161.132843 45.389 130.3105
162.300476 46.018 132.9876
163.476578 46.099 -103.5715
164.661194 45.542 -99.1820
165.854401 44.137 -117.6487
167.056244 43.097 -163.7386
168.266800 42.933 -176.9586
169.486130 42.882 105.8486
170.714294 43.477 40.4528
171.951355 45.051 -76.9068
173.197388 47.167 -100.5379
174.452454 49.863 -152.9451
175.716614 52.274 -134.3845
176.989929 53.622 -120.9564
178.272476 54.019 -158.1064
179.564316 53.928 103.5110
180.865509 53.132 90.1437
182.176132 51.244 82.5981
183.496262 48.967 -168.7317
184.825958 48.310 -170.0244
186.165283 49.032 177.7073
187.514313 49.855 163.4532
188.873123 50.957 23.1184
190.241776 51.723 31.4709
191.620346 51.713 52.0151
193.008911 51.073 70.5222
194.407532 50.202 78.8534
195.816284 49.431 60.4529
197.235245 48.506 40.9480
198.664490 46.683 26.9571
200.104095 44.034 -47.3233
201.554138 41.233 -92.4372
203.014679 39.165 -114.6739
204.485809 38.962 -105.0841
205.967590 39.795 167.0669
207.460114 40.792 115.0830
208.963455 42.006 39.0580
210.477692 42.854 39.0414
212.002899 43.617 66.5011
213.539154 45.450 108.0859
215.086548 48.018 93.7290
216.645157 49.918 87.5296
218.215057 50.559 76.3796
219.796341 50.516 24.5239
221.389069 49.854 -14.9360
222.993347 48.789 -41.6935
224.609253 48.578 -75.0046
226.236862 48.934 -75.0204
227.876266 48.680 -45.0800
229.527557 47.908 -33.7323
231.190811 47.263 -43.2242
232.866119 46.980 -6.1024
234.553558 46.695 -9.7079
236.253235 45.676 2.1118
237.965225 43.734 45.2686
239.689621 42.443 59.6605
241.426514 44.099 111.2708
243.175995 46.786 140.9221
244.938141 48.819 82.6143
246.713058 49.788 31.2461
248.500839 49.328 40.1819
250.301575 48.130 75.0234
252.115356 47.526 98.3748
253.942291 46.874 91.2071
255.782455 45.509 87.6537
257.635956 45.008 91.2365
259.502899 45.905 80.6215
261.383362 46.642 79.2958
263.277466 46.880 97.6367
265.185272 46.633 -125.5184
267.106903 46.070 -109.6370
269.042480 45.581 -132.5209
270.992065 46.061 167.0285
272.955780 47.779 132.5933
274.933716 49.187 111.6661
276.925995 49.162 76.1819
278.932709 48.534 -6.0826
280.953979 49.247 -51.5210
282.989899 50.974 110.2617
285.040558 52.446 88.3999
287.106079 52.674 73.7646
289.186554 51.533 73.9566
291.282104 49.972 91.9766
293.392853 49.035 109.5886
295.518890 49.829 83.4409
297.660339 51.828 60.8880
299.817322 53.645 42.4453
301.989929 55.166 36.5214
304.178284 56.365 65.2171
306.382477 57.183 90.6218
308.602661 57.533 81.2452
310.838928 57.391 64.0640
313.091400 56.720 46.8092
315.360199 55.699 28.1284
317.645416 54.699 33.2659
319.947205 54.183 25.8629
322.265686 53.693 19.9416
324.600952 52.767 24.2246
326.953156 52.656 0.7037
329.322388 53.812 -55.6042
331.708801 54.894 -70.2616
334.112488 55.601 95.4372
336.533600 56.301 64.6030
338.972260 56.886 32.9402
341.428589 57.476 23.2619
343.902710 58.168 25.8080
346.394775 58.768 22.4718
348.904907 59.454 -24.2966
351.433228 59.869 -57.5419
353.979858 59.211 -69.7487
356.544952 57.423 -72.4543
359.128632 55.192 -74.5550
361.731018 53.131 -48.4525
364.352264 51.938 -50.4976
366.992523 51.858 -81.1282
369.651917 52.508 -89.4564
372.330566 52.836 -112.6257
375.028625 52.000 -176.1536
377.746246 50.340 85.9962
380.483551 48.894 76.4678
383.240692 47.721 82.6868
386.017822 46.246 71.9701
388.815063 45.493 77.8883
391.632568 46.116 106.0636
394.470490 47.225 90.7081
397.328979 48.462 -78.6202
400.208191 50.100 -85.2269
403.108276 51.865 121.4888
406.029358 53.115 113.5415
408.971619 53.750 114.9156
411.935181 53.811 122.9075
414.920227 53.374 108.6628
417.926910 53.193 86.7307
420.955383 53.793 88.6320
424.005798 54.681 88.0134
427.078308 55.175 73.8489
430.173096 55.121 125.0713
433.290314 55.044 127.4172
436.430115 54.758 68.9258
439.592682 54.214 32.1805
442.778137 53.832 14.0272
445.986694 53.515 4.4395
449.218506 53.265 2.9561
452.473724 52.594 7.7195
455.752533 51.289 12.0017
459.055115 50.508 104.4200
462.381622 50.857 126.3505
465.732239 51.871 85.0073
469.107117 52.479 70.6614
472.506470 51.815 63.0912
475.930450 50.523 61.1237
479.379242 50.474 56.7290
482.853027 51.259 52.7877
486.351990 51.664 51.4996
489.876282 51.447 44.3014
493.426117 51.526 48.0044
497.001678 52.562 48.5027
500.603149 53.468 38.4039
504.230713 53.853 17.6019
507.884583 54.247 -32.6576
511.564911 54.934 -33.4252
515.271912 55.848 34.4386
519.005798 56.677 101.5784
522.766724 57.308 53.9838
526.554932 57.903 89.7546
530.370544 58.278 101.8335
534.213806 58.151 90.1785
538.084961 57.793 78.2175
541.984131 57.603 64.9094
545.911560 56.919 71.4836
549.867432 55.512 86.4166
553.851990 54.065 87.7034
557.865417 53.076 83.6538
561.907959 53.208 71.1948
565.979797 54.281 48.3907
570.081116 55.180 28.4451
574.212158 55.549 17.3669
578.373108 55.985 7.1616
582.564209 57.367 5.1720
586.785706 59.417 73.9783
591.037781 61.290 81.6345
595.320679 62.858 51.3265
599.634644 63.669 -6.4441
603.979858 63.387 13.2501
608.356567 62.292 60.7397
612.764954 60.476 55.7483
617.205322 58.426 33.8141
621.677856 57.153 35.8619
626.182800 57.289 50.3688
630.720398 57.975 45.3396
635.290833 58.203 47.0475
639.894409 57.883 48.0088
644.531372 57.146 -7.2065
649.201904 57.035 -36.6208
653.906311 58.518 -37.6526
658.644775 60.304 152.7545
663.417603 61.087 95.2213
668.224976 61.131 94.1492
673.067200 61.305 -176.4061
677.944519 61.729 153.0918
682.857178 61.902 79.3140
687.805420 61.690 56.3801
692.789551 61.148 44.7769
697.809814 60.337 39.6233
702.866455 59.076 29.8563
707.959717 57.907 -135.5629
713.089905 57.358 -58.4526
718.257263 56.887 -30.0837
723.462036 56.557 -65.1541
728.704529 57.822 -70.4038
733.985046 59.729 -90.1699
739.303833 60.564 -138.8406
744.661133 60.180 -170.3856
750.057251 59.512 155.1823
755.492493 59.299 110.1844
760.967102 59.252 91.8652
766.481384 59.341 16.3473
772.035645 60.251 -94.8535
777.630127 62.117 -154.9807
783.265137 63.596 167.5234
788.940979 63.651 132.4741
794.657959 62.699 136.9624
800.416382 61.839 142.9961
806.216553 61.190 132.3613
812.058716 60.555 108.7126
817.943237 59.911 92.6685
823.870361 59.010 83.2122
829.840454 58.063 113.8679
835.853821 57.764 157.5808
841.910767 58.583 -135.4546
848.011597 59.832 -84.6094
854.156616 60.927 -101.1362
860.346191 61.209 -150.6790
866.580627 60.329 176.4526
872.860229 59.333 136.7837
879.185364 58.815 116.8037
885.556274 58.013 140.6904
891.973389 57.408 -163.9507
898.437012 57.398 -115.6475
904.947449 57.470 -96.2617
911.505066 57.481 -129.6299
918.110229 57.766 -134.9165
924.763245 57.970 -157.9556
931.464478 57.695 163.6963
938.214233 57.115 98.4797
945.012939 57.150 -1.2776
951.860901 57.673 -65.2715
958.758484 57.443 -104.6382
965.706055 56.903 -129.9492
972.703979 56.736 -113.4863
979.752563 56.360 -97.2202
986.852234 56.116 -115.4219
994.003357 56.423 -135.2607
1001.206299 56.540 -139.7051
1008.461426 56.361 -144.1802
1015.769165 56.363 -168.9390
1023.129822 56.420 151.1238
1030.543823 56.354 58.4043
1038.011597 56.173 -0.6223
1045.533447 55.064 -50.9478
1053.109863 53.522 -75.0710
1060.741089 53.481 -73.0435
1068.427612 54.478 -73.0303
1076.169922 55.162 -90.4360
1083.968262 55.808 -126.8523
1091.823120 56.696 -33.4241
1099.734863 57.220 69.2139
1107.703979 56.881 87.6458
1115.730835 55.744 110.2817
1123.815918 55.128 57.3911
1131.959595 55.855 12.7117
1140.162231 56.935 -18.5806
1148.424316 57.647 -46.4460
1156.746216 57.976 -37.9678
1165.128418 58.459 -4.4280
1173.571411 59.064 27.7644
1182.075562 59.354 16.0803
1190.641357 59.260 -10.5964
1199.269287 58.993 2.3647
1207.959717 58.651 22.1602
1216.713135 57.714 -10.9460
1225.529907 56.220 3.9512
1234.410645 55.618 48.9546
1243.355713 56.145 54.2087
1252.365601 56.489 41.7302
1261.440796 56.586 36.9155
1270.581665 57.055 28.7151
1279.788818 58.483 23.8892
1289.062744 60.185 44.1860
1298.403809 60.870 32.2759
1307.812622 60.370 15.4519
1317.289551 59.309 1.6907
1326.835205 59.404 19.6399
1336.449951 60.416 30.6128
1346.134399 60.908 52.7236
1355.889038 60.778 77.7986
1365.714355 60.806 97.6909
1375.610840 60.792 99.6614
1385.579102 60.206 102.0354
1395.619629 60.263 82.3445
1405.732910 61.154 71.4468
1415.919434 61.204 65.7520
1426.179810 60.085 64.9775
1436.514526 58.677 67.6165
1446.924072 58.028 78.8057
1457.409058 58.459 149.8494
1467.970093 59.389 -179.9778
1478.607666 60.819 158.2913
1489.322266 62.600 132.2180
1500.114502 63.843 114.0032
1510.984985 64.358 95.0012
1521.934204 64.433 67.6724
1532.962769 64.275 40.4910
1544.071289 63.822 16.7361
1555.260254 63.787 -18.9958
1566.530273 64.116 -106.3875
1577.881958 64.435 -158.2251
1589.315918 64.581 -171.4983
1600.832764 64.537 154.1123
1612.433105 64.259 115.3613
1624.117432 63.051 83.8022
1635.886475 61.700 73.1211
1647.740723 62.387 44.7527
1659.680908 63.953 -11.5940
1671.707642 64.580 -50.2302
1683.821533 63.918 -54.9819
1696.023193 63.340 -51.2888
1708.313232 64.137 165.2112
1720.692383 65.008 147.2644
1733.161255 65.062 140.0278
1745.720459 65.111 75.8960
1758.370728 65.151 3.3181
1771.112549 64.925 -47.1787
1783.946777 65.052 -77.9971
1796.874023 65.118 -73.7585
1809.894897 64.710 -52.0540
1823.010132 64.491 -19.8284
1836.220459 64.531 -1.8674
1849.526489 64.884 -20.0156
1862.928955 65.550 -48.5137
1876.428467 66.163 -54.8369
1890.025879 66.086 -36.2109
1903.721802 65.801 -24.6082
1917.516968 65.696 -8.2822
1931.412109 65.893 -1.1870
1945.407959 66.444 12.7537
1959.505127 67.928 26.4690
1973.704468 71.256 4.7441
1988.006714 74.703 -21.3572
2002.412598 76.042 -29.9419
2016.922852 74.406 -7.2563
2031.538330 70.745 -4.9368
2046.259644 66.833 -30.5288
2061.087646 64.156 -45.2109
2076.023193 62.972 -30.9775
2091.066895 62.898 -12.2947
2106.219727 62.995 -3.3867
2121.482178 62.420 -12.5276
2136.855225 61.021 -19.0122
2152.339844 60.080 50.9663
2167.936523 60.693 63.3359
2183.646240 62.020 35.5850
2199.469727 62.844 12.8704
2215.407959 62.444 6.9229
2231.461670 61.428 122.1641
2247.631836 61.263 115.7024
2263.919189 62.169 96.7009
2280.324463 62.806 93.0833
2296.848633 62.654 81.5659
2313.492432 62.860 -36.8372
2330.256836 64.518 -30.6086
2347.142822 66.599 -25.4797
2364.151123 67.511 18.8628
2381.282715 66.975 -7.6091
2398.538574 66.264 -23.9246
2415.919434 66.734 11.5085
2433.426270 67.778 14.4739
2451.059814 68.483 -121.4897
2468.821289 68.648 -126.0671
2486.711426 68.851 -157.8972
2504.731201 69.249 -35.3560
2522.881592 69.683 -46.2712
2541.163330 69.806 -46.9500
2559.577637 69.593 -5.1660
2578.125488 69.347 17.0203
2596.807617 69.252 -1.2803
2615.625244 69.389 -35.6731
2634.579102 69.414 -40.4438
2653.670410 69.437 -50.5061
2672.899902 69.554 -52.7395
2692.268799 69.404 -75.6785
2711.778076 68.663 -99.2725
2731.428711 67.969 -114.1050
2751.221680 68.044 -57.7747
2771.158203 68.395 29.8965
2791.239258 69.039 35.9221
2811.465820 70.216 37.3245
2831.838867 71.181 37.0403
2852.359619 71.890 68.7705
2873.029053 72.287 126.2168
2893.848145 71.928 85.8010
2914.818115 71.131 67.6628
2935.940186 70.398 78.3582
2957.215332 70.205 -169.6343
2978.644531 70.072 141.3333
3000.229004 69.634 139.9111
3021.969971 68.968 -130.5747
3043.868408 68.071 -98.2734
3065.925537 67.225 -118.1819
3088.142578 66.577 18.8794
3110.520508 66.063 -106.7676
3133.060547 65.947 -102.3301
3155.763916 66.136 -83.6206
3178.631836 66.211 -66.6667
3201.665527 66.424 -58.0928
3224.866211 66.670 -9.3352
3248.234863 66.519 -85.2271
3271.772949 65.914 -130.1411
3295.481445 65.147 -122.4741
3319.361816 65.008 -125.3533
3343.415283 64.936 -167.0979
3367.643066 64.751 145.5635
3392.046387 64.532 -32.7637
3416.626465 64.394 -55.7627
3441.384766 64.341 -66.1448
3466.322510 64.410 -45.8987
3491.440918 64.667 12.1411
3516.741455 65.047 7.1660
3542.225098 64.884 20.0281
3567.893555 64.081 72.6538
3593.748047 63.685 76.6780
3619.789795 63.788 53.1770
3646.020264 63.582 52.1257
3672.440918 62.686 78.8503
3699.052979 61.426 87.0901
3725.857910 60.617 96.6487
3752.856934 61.306 172.4551
3780.051758 62.661 139.5732
3807.443604 63.708 102.9282
3835.033936 64.894 33.2043
3862.824219 66.386 94.7490
3890.815918 67.850 57.8311
3919.010254 69.644 -0.2578
3947.408936 71.264 -42.0103
3976.013428 71.803 -32.9844
4004.825195 71.311 34.1702
4033.845703 69.814 50.6372
4063.076660 67.872 9.5352
4092.519287 66.311 -18.9656
4122.175293 65.398 35.1257
4152.046387 65.235 45.4954
4182.133789 66.076 61.6907
4212.439453 67.857 60.9404
4242.964355 69.353 48.7861
4273.710449 69.717 41.4104
4304.679688 69.187 89.1323
4335.873047 68.044 80.1968
4367.292480 66.657 81.0142
4398.939453 65.856 102.5674
4430.815918 66.004 102.5972
4462.923340 66.587 100.1526
4495.263672 66.638 -177.9207
4527.838379 66.111 -176.5200
4560.648926 65.332 -167.8779
4593.697266 64.907 -93.9829
4626.984863 64.808 -97.2842
4660.513672 64.545 -154.9490
4694.285645 64.226 -165.8279
4728.302246 64.019 -118.8052
4762.565430 63.793 -76.4575
4797.077148 63.367 -37.9121
4831.838867 62.775 -17.1406
4866.852539 62.119 -2.9661
4902.119629 62.441 15.8169
4937.642578 63.557 13.5085
4973.422852 64.337 42.1450
5009.462402 64.498 55.4089
5045.763184 65.027 38.4570
5082.326660 66.068 24.8445
5119.155273 67.214 24.6345
5156.250977 68.249 -62.0046
5193.615234 69.158 41.1624
5231.250488 69.876 21.1516
5269.158203 70.527 -3.7778
5307.340820 70.798 6.7749
5345.799805 70.153 -15.9504
5384.537598 69.067 -13.1326
5423.556152 68.087 3.1670
5462.857422 67.218 8.8774
5502.443359 66.460 -0.9961
5542.316406 65.544 -11.8008
5582.478516 64.633 -2.5557
5622.931641 64.640 5.3918
5663.677734 65.032 -19.6204
5704.719238 65.379 -30.4771
5746.058105 66.124 -28.2043
5787.696289 66.477 -24.2224
5829.636230 65.745 -31.7812
5871.880371 64.988 -23.3347
5914.430664 64.955 -59.2097
5957.289062 64.909 -21.9036
6000.458008 64.480 75.4958
6043.939941 63.510 -154.6614
6087.736816 62.322 -169.3477
6131.851074 61.074 -17.3228
6176.285156 60.019 -32.8562
6221.041016 59.542 -15.9419
6266.121094 59.836 0.5649
6311.527832 60.649 21.6355
6357.263672 61.395 26.7644
6403.331055 61.918 35.2883
6449.732422 61.900 28.9717
6496.469727 61.432 17.5103
6543.545898 61.185 4.4177
6590.962891 61.129 89.9465
6638.723633 60.900 22.3542
6686.830566 60.805 -28.7744
6735.286133 61.338 -33.6333
6784.092773 62.487 -19.2107
6833.252930 63.588 -3.5007
6882.769531 64.944 14.4592
6932.645020 66.218 18.9749
6982.881836 67.330 23.9976
7033.482910 68.434 24.6289
7084.450195 69.076 31.9243
7135.787109 69.056 23.1787
7187.496094 68.538 -15.9653
7239.579590 67.715 -16.6592
7292.040527 66.958 -15.9565
7344.881836 66.864 56.1721
7398.105957 66.953 110.6899
7451.715820 66.558 42.6277
7505.713867 66.345 47.5613
7560.103516 66.783 51.5654
7614.887207 67.494 56.6316
7670.067871 67.775 79.7871
7725.648438 67.296 92.7974
7781.631836 66.602 97.2822
7838.020508 66.377 74.0291
7894.817871 66.691 27.0024
7952.026855 67.165 10.9031
8009.650391 67.327 -10.3159
8067.691406 66.904 -29.3159
8126.153320 66.089 -42.7488
8185.038574 65.126 -35.8525
8244.350586 64.274 -8.8877
8304.092773 63.411 -4.2634
8364.267578 62.719 3.1438
8424.878906 63.334 -7.7859
8485.928711 65.026 -92.6885
8547.420898 65.918 -167.9885
8609.359375 65.547 160.7654
8671.746094 65.004 -126.6240
8734.584961 64.304 -169.0168
8797.878906 63.238 -173.0630
8861.631836 61.999 172.0198
8925.846680 61.033 104.9028
8990.527344 60.961 75.0251
9055.676758 61.863 60.4578
9121.297852 63.189 44.7876
9187.394531 64.092 18.9456
9253.969727 64.199 -12.3743
9321.027344 63.514 -37.9065
9388.571289 62.300 -109.8821
9456.604492 60.862 -100.8896
9525.130859 60.392 -72.7144
9594.154297 61.839 -0.8335
9663.677734 64.032 50.4604
9733.705078 65.912 36.3950
9804.239258 67.014 53.8110
9875.285156 67.258 36.6162
9946.845703 67.105 -8.0269
10018.924805 66.462 -34.1118
10091.526367 65.181 -1.5764
10164.653320 64.061 -7.5251
10238.310547 63.758 -41.2292
10312.501953 64.405 -53.0767
10387.230469 65.495 42.5090
10462.500977 66.270 103.3267
10538.316406 66.168 91.3474
10614.681641 65.436 4.8562
10691.599609 64.288 7.8076
10769.075195 62.791 -24.1272
10847.112305 61.274 -43.7856
10925.714844 60.770 -25.7883
11004.886719 61.410 -5.1028
11084.632812 62.153 12.0054
11164.957031 62.405 9.2947
11245.863281 62.340 -8.4146
11327.355469 62.366 -160.0300
11409.438477 62.165 -144.1128
11492.116211 61.910 -106.2351
11575.392578 62.176 -66.6638
11659.272461 62.740 -42.8264
11743.760742 62.963 -13.0166
11828.861328 62.237 12.6360
11914.578125 60.707 -1.0210
12000.916016 59.566 -17.0930
12087.879883 59.518 -69.0408
12175.473633 60.017 -75.7786
12263.702148 60.551 -67.1570
12352.570312 60.847 -38.1033
12442.082031 60.817 3.5291
12532.242188 60.468 14.3281
12623.055664 60.212 31.5176
12714.527344 60.318 64.3467
12806.662109 60.440 65.5647
12899.464844 60.245 31.4290
12992.939453 59.584 -39.9824
13087.091797 58.895 -38.0020
13181.925781 58.792 21.3806
13277.447266 59.070 44.4583
13373.661133 59.243 -44.2034
13470.572266 59.309 -6.9417
13568.185547 59.135 6.8174
13666.505859 58.727 -58.9421
13765.539062 58.118 -126.4500
13865.290039 57.295 -117.4492
13965.763672 56.284 -5.9556
14066.965820 55.618 67.6726
14168.900391 56.019 0.2874
14271.574219 57.501 -81.7136
14374.992188 58.977 -66.3706
14479.159180 59.709 -41.3408
14584.081055 59.607 -42.3884
14689.763672 59.056 -53.2881
14796.211914 59.094 -52.0679
14903.431641 60.280 -142.8945
15011.427734 61.431 177.0388
15120.207031 61.627 176.9272
15229.774414 60.550 80.4031
15340.135742 58.495 83.1238
15451.296875 56.624 165.2861
15563.263672 56.480 164.6897
15676.041016 57.540 149.4521
15789.635742 58.331 139.2649
15904.053711 58.380 134.2913
16019.300781 57.755 136.6750
16135.382812 57.033 -177.5657
16252.306641 56.969 -125.4658
16370.077148 57.336 -93.0161
16488.701172 57.490 -88.5320
16608.185547 57.178 -96.5947
16728.535156 56.737 -89.7471
16849.757812 56.576 -56.1399
16971.857422 56.813 -14.6968
17094.841797 56.984 17.0173
17218.718750 56.969 43.4666
17343.492188 56.961 38.1411
17469.169922 57.018 16.3352
17595.757812 57.043 14.6450
17723.263672 56.878 -11.6086
17851.693359 56.338 26.8289
17981.054688 55.989 51.4421
18111.353516 56.164 39.3245
18242.595703 56.644 -16.1240
18374.789062 57.175 7.8982
18507.939453 57.425 46.0549
18642.054688 57.925 66.2327
18777.142578 60.600 55.2659
18913.208984 66.008 -59.5217
19050.261719 71.702 -107.4128
19188.308594 76.397 -87.5295
19327.355469 79.493 -26.8384
19467.410156 80.740 -5.4954
19608.478516 81.660 0.6289
19750.570312 82.113 -16.2642
19893.691406 80.763 -41.5178
20037.849609 0.000 -54.8537
