* Measurement data measured by REW V5.30.2
* Source: EXCL: Microphone (Umik-1  Gain: 18dB), MICROPHONE (Master Volume), L, volume: 0.540
* Format: 256k Log Swept Sine, 1 sweep at -20.0 dBFS with no timing reference
* Dated: Jan 29, 2024 4:05:00 PM
* REW Settings:
*  C-weighting compensation: Off
*  Target level: 75.0 dB
* Note: sweep taken 0.5m from microphone, fan was run in oven for roughly a week at ~90degC; 
* Measurement: Bad Fan 5 -- Post-Oven
* Smoothing: 1/48 octave
* Frequency Step: 96 ppo
* Start Frequency: 20.0 Hz
*
* Freq(Hz) SPL(dB) Phase(degrees)
20.141602 63.331 -62.9720
20.287556 64.253 -68.8495
20.434568 65.306 -74.3109
20.582645 66.209 -79.4833
20.731796 66.840 -84.9802
20.882027 67.253 -90.1987
21.033346 67.465 -95.5770
21.185762 67.472 -101.0333
21.339283 67.278 -106.0041
21.493916 66.872 -111.1453
21.649670 66.213 -115.5113
21.806553 65.288 -119.2733
21.964573 64.019 -121.9463
22.123737 62.270 -122.0687
22.284056 60.287 -118.1384
22.445536 58.555 -105.6760
22.608185 57.397 -78.2138
22.772013 57.676 -50.9123
22.937029 59.342 -36.3451
23.103241 61.004 -30.7772
23.270657 62.146 -29.9358
23.439285 62.834 -30.9256
23.609137 63.044 -33.1340
23.780218 62.800 -36.2165
23.952539 62.124 -39.6212
24.126110 60.996 -44.1194
24.300938 59.366 -49.5411
24.477032 57.316 -57.8525
24.654402 55.073 -71.7026
24.833057 53.029 -96.9033
25.013008 52.445 -127.9258
25.194263 53.335 -147.8033
25.376831 54.659 -155.5505
25.560722 56.098 -156.6848
25.745945 57.296 -155.5064
25.932510 58.206 -152.8563
26.120428 58.780 -150.5072
26.309708 58.979 -148.0914
26.500359 58.710 -145.8610
26.692390 57.903 -143.1992
26.885815 56.394 -138.9142
27.080641 54.393 -130.3573
27.276878 52.302 -107.7557
27.474539 51.182 -56.0685
27.673630 52.186 -19.4676
27.874165 53.644 -4.7746
28.076153 54.445 3.5101
28.279604 54.535 12.5823
28.484529 54.096 27.1285
28.690941 54.269 53.2998
28.898848 55.380 85.7957
29.108261 57.339 105.9567
29.319191 59.386 115.6162
29.531651 60.886 119.6029
29.745649 61.814 121.0549
29.961199 62.151 120.9862
30.178310 61.911 120.5122
30.396996 61.067 119.9196
30.617264 59.563 120.2456
30.839128 57.332 123.0336
31.062601 54.510 134.3678
31.287693 52.603 176.4159
31.514416 52.444 -130.4931
31.742783 53.871 -115.7838
31.972803 55.108 -112.4730
32.204491 55.549 -113.2599
32.437859 55.213 -115.7491
32.672916 54.111 -119.6929
32.909679 52.248 -126.1066
33.148155 49.659 -138.0057
33.388359 47.418 -173.6302
33.630306 46.947 116.9844
33.874004 48.134 92.7065
34.119469 49.668 85.7348
34.366711 50.547 84.7911
34.615746 50.840 87.7754
34.866585 50.699 94.0400
35.119244 50.279 103.9380
35.373734 49.739 116.1487
35.630066 49.078 130.0531
35.888256 48.340 146.8455
36.148315 47.809 172.1503
36.410259 48.509 -148.3425
36.674103 50.422 -117.1980
36.939857 52.734 -103.6071
37.207539 54.495 -100.2047
37.477161 55.500 -101.6121
37.748737 55.663 -106.4132
38.022282 54.955 -115.1182
38.297806 53.473 -129.8182
38.575329 52.130 -164.6360
38.854862 52.057 120.8411
39.136421 53.535 83.3755
39.420021 54.844 66.2853
39.705673 55.376 54.4717
39.993397 54.945 44.5151
40.283207 53.516 35.8085
40.575115 51.031 29.7763
40.869141 47.766 32.4395
41.165295 45.449 133.6271
41.463596 45.317 167.3177
41.764057 46.156 170.5802
42.066696 46.480 175.7168
42.371529 46.576 -174.8130
42.678570 46.732 -164.4517
42.987835 46.760 -157.0274
43.299343 46.225 -152.5988
43.613110 44.868 -146.7318
43.929150 43.205 -123.8750
44.247478 43.285 -75.2830
44.568115 44.836 -60.1171
44.891075 46.122 -64.9201
45.216373 46.427 -78.0341
45.544029 45.780 -97.5310
45.874062 44.460 -124.7438
46.206486 43.094 -168.6393
46.541317 42.773 100.0524
46.878574 43.871 42.3454
47.218277 45.074 16.0206
47.560440 45.378 0.0995
47.905083 44.594 -7.0596
48.252224 43.955 17.9573
48.601879 45.404 98.7757
48.954067 47.586 105.9051
49.308807 48.808 101.6966
49.666119 48.556 95.3444
50.026020 46.837 88.4410
50.388531 44.354 80.6633
50.753666 42.926 -100.3823
51.121449 42.885 -101.3619
51.491894 44.123 -68.3204
51.865025 46.795 9.7358
52.240860 49.567 17.0430
52.619419 51.168 13.0351
53.000721 51.268 6.5391
53.384785 49.871 0.0820
53.771633 47.373 0.3739
54.161285 45.493 116.3723
54.553761 45.311 127.9941
54.949081 45.060 115.9342
55.347263 43.731 95.3975
55.748333 41.663 66.3738
56.152309 40.240 47.9501
56.559212 41.060 53.1246
56.969063 42.996 56.0295
57.381886 44.240 49.2483
57.797699 45.161 33.6199
58.216526 47.301 -139.6874
58.638386 50.061 -161.1338
59.063305 51.989 -177.5916
59.491302 52.603 165.9215
59.922401 51.852 149.4965
60.356625 49.781 134.8091
60.793995 46.804 133.2039
61.234531 44.383 -121.2477
61.678261 43.481 -116.2881
62.125206 43.076 -113.0018
62.575390 43.921 -48.7705
63.028835 45.943 -26.2795
63.485569 47.227 -33.4466
63.945610 47.021 -45.3981
64.408989 45.940 -58.4670
64.875725 46.135 114.8572
65.345840 48.119 105.0197
65.819366 50.191 101.0703
66.296318 51.913 101.6052
66.776726 53.330 103.2361
67.260620 54.198 102.6829
67.748016 54.145 100.2568
68.238945 52.992 99.5306
68.733429 51.387 120.3774
69.231499 51.229 -138.7078
69.733177 52.144 -126.0259
70.238495 52.123 -122.8837
70.747475 50.851 -109.5204
71.260139 49.565 -38.5294
71.776520 49.231 5.5402
72.296638 48.703 23.9656
72.820526 47.708 63.8266
73.348213 47.238 125.8168
73.879723 47.299 166.7808
74.415085 47.562 -151.6252
74.954330 47.686 -124.4797
75.497482 46.829 -111.0967
76.044571 45.078 -77.7368
76.595619 43.776 35.9928
77.150665 42.840 52.3375
77.709732 41.650 97.5021
78.272850 40.994 -178.5360
78.840050 40.349 -155.8864
79.411354 39.280 -109.9717
79.986801 38.569 -44.6970
80.566422 37.848 -19.5133
81.150238 36.359 -7.5834
81.738289 34.358 -17.9977
82.330597 33.332 -67.1437
82.927200 33.879 -71.8680
83.528122 34.735 -50.2645
84.133400 35.245 -18.0865
84.743065 35.801 41.2958
85.357147 36.754 90.3041
85.975677 37.655 121.7172
86.598694 38.736 141.0730
87.226227 40.253 121.9976
87.858307 42.061 41.3441
88.494965 43.263 15.0500
89.136238 43.014 13.3718
89.782158 41.810 36.5717
90.432755 41.260 64.7166
91.088066 42.239 -95.4467
91.748131 43.655 -107.1139
92.412979 43.783 -117.8480
93.082642 42.475 -145.8823
93.757156 41.495 132.2532
94.436562 42.379 133.4229
95.120888 43.736 140.9547
95.810173 44.467 130.3380
96.504456 45.314 -15.8973
97.203766 46.200 -35.9390
97.908142 45.999 -41.3229
98.617622 44.429 -42.7179
99.332245 41.867 -46.8804
100.052048 40.147 -77.1383
100.777069 42.163 -134.5918
101.507339 45.368 -163.9288
102.242905 47.466 169.2703
102.983795 48.102 145.8289
103.730057 47.599 128.8262
104.481728 46.881 114.9225
105.238846 46.505 94.3506
106.001450 45.954 68.3300
106.769577 45.250 60.1137
107.543274 45.061 -163.9558
108.322578 44.858 -179.1248
109.107529 44.698 -129.4298
109.898170 45.445 -61.3396
110.694534 46.080 -80.1638
111.496674 45.826 -121.6316
112.304626 45.120 160.5415
113.118431 44.579 145.6793
113.938133 44.986 -140.5168
114.763779 46.156 -115.2283
115.595406 47.607 -94.7354
116.433060 49.700 30.9359
117.276779 51.641 24.6089
118.126617 52.959 -37.2723
118.982613 54.319 -75.6047
119.844810 56.015 -48.1094
120.713257 57.172 -35.7916
121.587997 56.588 -39.1418
122.469070 54.081 -38.5265
123.356529 50.252 -21.9270
124.250420 46.217 14.4106
125.150787 43.612 55.0839
126.057678 42.216 49.3221
126.971146 41.234 44.8523
127.891228 42.301 105.5160
128.817978 44.410 114.1536
129.751450 45.639 101.0273
130.691681 46.072 34.2490
131.638733 46.231 -0.7551
132.592636 46.166 32.6357
133.553452 45.927 79.0389
134.521240 45.429 144.6490
135.496033 45.126 -175.7798
136.477890 45.759 -166.2296
137.466858 47.165 173.0891
138.462997 47.935 163.8171
139.466354 48.153 -129.5481
140.476990 48.457 20.8032
141.494949 48.465 52.9895
142.520279 47.158 54.7076
143.553040 44.345 90.9762
144.593277 40.884 -135.7899
145.641052 38.825 -89.5543
146.696426 39.312 -94.1901
147.759445 39.681 -103.8701
148.830170 38.550 -93.5730
149.908661 37.064 29.7823
150.994965 37.623 49.4136
152.089142 40.550 79.7656
153.191238 43.360 82.1755
154.301331 45.087 94.6379
155.419464 46.047 122.7192
156.545700 46.353 129.1501
157.680099 45.984 109.2734
158.822708 45.800 81.7668
159.973602 45.579 54.7985
161.132843 44.583 27.2225
162.300476 43.613 7.8531
163.476578 43.419 149.4302
164.661194 43.615 163.0852
165.854401 44.150 -101.2742
167.056244 45.299 32.7966
168.266800 46.577 55.3950
169.486130 47.655 146.2090
170.714294 48.540 -118.2468
171.951355 48.979 -45.6316
173.197388 48.746 91.5125
174.452454 48.053 122.7451
175.716614 47.691 134.2632
176.989929 48.668 45.0920
178.272476 50.369 60.8250
179.564316 51.414 55.5396
180.865509 51.338 29.3276
182.176132 50.310 9.9390
183.496262 48.917 14.2842
184.825958 47.760 7.8142
186.165283 47.873 -45.3533
187.514313 48.683 -86.1865
188.873123 48.745 148.1941
190.241776 47.698 139.8721
191.620346 46.023 -130.6079
193.008911 45.075 -123.3538
194.407532 46.049 -168.3235
195.816284 48.122 -14.6057
197.235245 49.599 -29.7910
198.664490 49.622 -23.8767
200.104095 48.699 101.8347
201.554138 47.812 10.9766
203.014679 47.400 -69.1172
204.485809 46.816 -131.8794
205.967590 45.840 -167.3870
207.460114 44.966 94.3047
208.963455 45.199 -9.4563
210.477692 46.121 -38.2827
212.002899 46.442 -26.0862
213.539154 46.722 -22.6040
215.086548 48.159 -82.3154
216.645157 49.936 -111.0110
218.215057 50.896 -131.7095
219.796341 50.683 -171.0918
221.389069 49.865 169.1599
222.993347 48.608 -174.6638
224.609253 47.004 -173.8105
226.236862 45.704 167.0801
227.876266 45.728 97.6562
229.527557 46.861 84.5610
231.190811 48.101 69.9604
232.866119 49.097 57.4792
234.553558 49.304 40.6479
236.253235 47.908 34.9556
237.965225 45.468 161.8921
239.689621 44.001 -161.8955
241.426514 44.516 -58.4336
243.175995 45.814 -41.0393
244.938141 47.031 -32.8916
246.713058 48.515 -21.0708
248.500839 49.635 -16.9639
250.301575 49.590 -37.7288
252.115356 48.808 -96.6228
253.942291 47.578 -78.7878
255.782455 46.182 -35.7407
257.635956 45.517 0.6069
259.502899 46.625 0.8284
261.383362 49.334 -25.4255
263.277466 51.554 -29.9802
265.185272 51.864 -32.0391
267.106903 50.127 -179.6626
269.042480 47.270 -169.0872
270.992065 45.851 -103.1682
272.955780 47.378 -93.1316
274.933716 49.091 -93.7351
276.925995 49.995 -88.1365
278.932709 51.239 -56.7019
280.953979 53.299 -51.5132
282.989899 55.137 -73.9714
285.040558 55.827 -67.2275
287.106079 55.415 -81.8303
289.186554 54.309 -106.1196
291.282104 53.014 -94.1289
293.392853 52.244 -92.6797
295.518890 52.403 -105.9792
297.660339 53.190 -121.2900
299.817322 54.267 -126.6074
301.989929 55.628 -126.0857
304.178284 57.452 -128.3330
306.382477 58.914 -117.2563
308.602661 59.036 -106.8503
310.838928 57.665 -111.8379
313.091400 55.526 -138.8584
315.360199 54.107 -157.5747
317.645416 54.335 -159.4641
319.947205 54.741 -155.1650
322.265686 54.529 -152.1943
324.600952 54.182 -158.7993
326.953156 54.166 -163.9009
329.322388 55.018 -178.0410
331.708801 56.737 -163.2542
334.112488 58.191 -128.8259
336.533600 58.543 -137.7861
338.972260 57.968 -175.5132
341.428589 56.985 172.8062
343.902710 56.448 174.1313
346.394775 56.770 165.3474
348.904907 56.892 158.2290
351.433228 56.285 133.0371
353.979858 55.506 120.9023
356.544952 55.019 137.4602
359.128632 54.346 126.0339
361.731018 53.102 106.9729
364.352264 52.347 97.6416
366.992523 52.609 112.4424
369.651917 52.902 122.6519
372.330566 52.499 115.5034
375.028625 51.266 106.5107
377.746246 50.095 162.8306
380.483551 49.501 165.3394
383.240692 48.637 177.0356
386.017822 47.694 -145.3428
388.815063 47.747 -69.8784
391.632568 48.135 -82.8477
394.470490 47.948 -172.7759
397.328979 47.314 129.6379
400.208191 47.026 69.8652
403.108276 47.407 -66.3116
406.029358 48.356 -106.8223
408.971619 49.445 -124.7756
411.935181 50.021 -106.6493
414.920227 50.563 -118.9628
417.926910 51.454 -134.4408
420.955383 52.430 -141.5453
424.005798 53.488 -134.8204
427.078308 54.442 -165.4449
430.173096 55.302 148.4401
433.290314 55.972 153.6615
436.430115 55.902 173.5917
439.592682 55.284 -171.8300
442.778137 54.503 -164.3783
445.986694 53.169 -174.4952
449.218506 51.901 165.9783
452.473724 51.885 125.3346
455.752533 52.629 46.6239
459.055115 52.993 32.2966
462.381622 52.906 -135.1913
465.732239 52.795 -160.4088
469.107117 52.739 167.0677
472.506470 52.543 155.1321
475.930450 51.973 162.8031
479.379242 50.999 171.8721
482.853027 50.226 167.2379
486.351990 50.138 146.7590
489.876282 50.764 133.2037
493.426117 52.147 135.1909
497.001678 53.589 137.3105
500.603149 54.045 129.8254
504.230713 53.456 131.8361
507.884583 53.300 156.9708
511.564911 54.338 159.1257
515.271912 55.476 145.7759
519.005798 56.378 153.0443
522.766724 57.481 177.2551
526.554932 58.295 -175.9255
530.370544 58.454 176.5822
534.213806 58.260 160.9197
538.084961 58.320 173.3293
541.984131 58.426 154.0009
545.911560 57.686 131.4071
549.867432 56.008 120.2341
553.851990 54.370 130.4458
557.865417 54.241 136.5948
561.907959 55.343 136.5034
565.979797 56.479 132.3636
570.081116 57.213 120.3336
574.212158 57.431 106.2938
578.373108 57.478 86.7437
582.564209 58.730 107.7373
586.785706 61.003 129.2220
591.037781 63.269 138.2040
595.320679 65.378 142.7556
599.634644 66.542 132.6007
603.979858 66.041 110.6111
608.356567 64.193 91.1423
612.764954 61.914 78.3167
617.205322 59.929 69.0608
621.677856 58.530 64.6544
626.182800 57.861 71.3782
630.720398 58.304 54.3914
635.290833 58.915 39.4093
639.894409 59.165 43.9329
644.531372 59.207 34.2301
649.201904 59.255 -4.8640
653.906311 59.568 -23.0110
658.644775 60.310 8.4265
663.417603 60.783 19.8611
668.224976 60.360 -5.6401
673.067200 60.119 -157.3431
677.944519 60.899 144.5834
682.857178 61.479 97.5479
687.805420 61.401 74.4662
692.789551 61.048 49.3790
697.809814 60.252 19.1257
702.866455 59.109 -12.5145
707.959717 58.310 -76.0196
713.089905 58.217 -82.3157
718.257263 58.647 2.2933
723.462036 59.437 19.7386
728.704529 60.121 -2.9044
733.985046 60.214 -39.4149
739.303833 59.969 -69.6527
744.661133 59.676 119.2236
750.057251 59.321 121.7487
755.492493 58.770 140.8520
760.967102 58.559 161.3945
766.481384 59.535 165.9252
772.035645 61.561 162.1245
777.630127 63.326 152.1288
783.265137 63.901 133.8934
788.940979 63.300 111.8503
794.657959 62.452 77.7657
800.416382 62.282 75.9479
806.216553 62.537 73.4652
812.058716 62.363 59.5522
817.943237 61.254 52.8303
823.870361 59.424 27.3280
829.840454 57.740 -9.0334
835.853821 57.478 15.9883
841.910767 58.313 8.4866
848.011597 59.018 -9.9464
854.156616 59.654 141.7037
860.346191 60.391 118.0531
866.580627 60.494 90.1797
872.860229 59.965 63.3823
879.185364 59.578 5.4314
885.556274 59.828 -19.3647
891.973389 60.392 -26.7365
898.437012 60.411 -46.4193
904.947449 59.212 -73.3712
911.505066 57.633 -137.9293
918.110229 56.838 -161.5660
924.763245 56.951 169.8540
931.464478 57.136 133.3677
938.214233 56.805 -84.4376
945.012939 56.092 -93.0191
951.860901 55.104 -102.0259
958.758484 54.366 -87.8567
965.706055 54.968 -66.9377
972.703979 55.844 168.8804
979.752563 55.570 144.9594
986.852234 54.405 128.6699
994.003357 53.361 116.2030
1001.206299 52.763 92.8981
1008.461426 53.345 75.5890
1015.769165 54.891 103.4546
1023.129822 55.987 124.2174
1030.543823 55.821 170.0026
1038.011597 54.708 164.1505
1045.533447 53.639 81.7927
1053.109863 53.774 -89.7401
1060.741089 54.811 -144.8888
1068.427612 55.262 -169.1146
1076.169922 55.220 -149.9105
1083.968262 56.116 -164.4932
1091.823120 57.586 142.3654
1099.734863 58.346 160.2724
1107.703979 58.011 -174.4018
1115.730835 56.858 -108.0031
1123.815918 55.870 132.5164
1131.959595 56.347 158.7208
1140.162231 57.733 160.0790
1148.424316 58.757 155.1660
1156.746216 59.069 151.8608
1165.128418 59.136 156.8969
1173.571411 59.393 158.1085
1182.075562 59.497 134.0110
1190.641357 58.874 101.7191
1199.269287 57.876 108.7343
1207.959717 57.308 113.0463
1216.713135 56.834 86.7195
1225.529907 56.389 44.9357
1234.410645 56.278 98.9620
1243.355713 56.396 125.2375
1252.365601 56.909 120.8090
1261.440796 57.655 116.9256
1270.581665 58.458 103.7843
1279.788818 58.997 88.7160
1289.062744 59.596 82.4843
1298.403809 60.124 74.9914
1307.812622 59.902 46.4012
1317.289551 59.432 44.9846
1326.835205 60.054 91.0631
1336.449951 61.108 107.2516
1346.134399 61.525 126.6003
1355.889038 61.672 127.2904
1365.714355 62.084 116.8997
1375.610840 62.221 100.3073
1385.579102 62.570 108.4074
1395.619629 63.319 108.5468
1405.732910 63.404 91.1046
1415.919434 62.866 60.9886
1426.179810 62.206 47.2654
1436.514526 61.437 41.5067
1446.924072 60.721 10.5787
1457.409058 60.977 -26.4839
1467.970093 61.728 95.3953
1478.607666 61.915 78.6544
1489.322266 61.836 92.3805
1500.114502 62.356 84.7756
1510.984985 63.142 51.7077
1521.934204 63.520 5.3822
1532.962769 63.123 -26.5342
1544.071289 62.370 -58.2524
1555.260254 61.995 -107.7424
1566.530273 62.048 -161.1097
1577.881958 62.539 111.0872
1589.315918 63.234 58.0046
1600.832764 63.508 16.7315
1612.433105 63.511 -17.1165
1624.117432 63.252 -51.2191
1635.886475 63.112 -91.1111
1647.740723 63.882 -117.2596
1659.680908 64.401 -148.4039
1671.707642 64.050 137.2942
1683.821533 63.414 90.3960
1696.023193 63.681 1.3682
1708.313232 64.566 -17.8560
1720.692383 65.065 -39.2626
1733.161255 65.360 -105.2440
1745.720459 65.483 142.5801
1758.370728 64.790 122.8923
1771.112549 63.430 111.2513
1783.946777 62.652 110.6252
1796.874023 62.910 105.1890
1809.894897 63.414 98.5112
1823.010132 64.155 106.5197
1836.220459 64.846 121.2280
1849.526489 64.974 112.3501
1862.928955 65.026 74.0610
1876.428467 65.424 38.0674
1890.025879 65.542 48.6990
1903.721802 65.678 66.4426
1917.516968 66.084 61.2716
1931.412109 66.795 109.0161
1945.407959 67.125 133.5054
1959.505127 66.793 130.0236
1973.704468 67.290 99.1562
1988.006714 68.453 163.5787
2002.412598 68.019 -157.8701
2016.922852 66.256 12.3236
2031.538330 64.971 7.9161
2046.259644 64.694 10.4269
2061.087646 65.039 35.3320
2076.023193 65.107 41.5278
2091.066895 64.465 46.2345
2106.219727 63.550 39.2362
2121.482178 62.444 2.1764
2136.855225 61.332 17.5408
2152.339844 60.927 43.3075
2167.936523 60.786 -0.9081
2183.646240 60.638 -29.6493
2199.469727 61.310 -80.6865
2215.407959 62.315 -147.3550
2231.461670 62.716 -166.2498
2247.631836 62.764 10.3824
2263.919189 63.168 -6.1885
2280.324463 63.663 -34.7140
2296.848633 63.915 -53.1816
2313.492432 63.568 -26.2959
2330.256836 63.308 -56.3611
2347.142822 64.021 -129.8438
2364.151123 64.864 176.9778
2381.282715 65.120 118.3353
2398.538574 64.933 -7.3556
2415.919434 65.327 -99.1093
2433.426270 66.388 169.1975
2451.059814 67.404 109.9895
2468.821289 67.712 68.1169
2486.711426 67.893 72.4318
2504.731201 68.464 119.0206
2522.881592 69.377 137.5529
2541.163330 70.421 110.3167
2559.577637 70.757 59.5754
2578.125488 69.856 35.8806
2596.807617 68.915 27.1293
2615.625244 68.986 -7.8392
2634.579102 69.517 -28.0312
2653.670410 69.832 -8.7185
2672.899902 70.177 34.7346
2692.268799 70.485 35.4993
2711.778076 70.203 -5.7123
2731.428711 69.095 0.6187
2751.221680 67.681 27.5142
2771.158203 66.735 53.6425
2791.239258 66.970 17.4427
2811.465820 68.257 -11.8464
2831.838867 69.468 -18.4862
2852.359619 70.105 -59.7457
2873.029053 70.058 -90.1763
2893.848145 69.646 -45.1525
2914.818115 69.659 6.6815
2935.940186 69.893 25.7397
2957.215332 70.118 -15.7812
2978.644531 70.523 -6.4095
3000.229004 70.808 -6.5013
3021.969971 70.456 -108.8867
3043.868408 69.862 -94.8140
3065.925537 69.322 -100.7664
3088.142578 68.219 103.6208
3110.520508 66.921 126.2441
3133.060547 66.698 96.4653
3155.763916 68.114 17.0969
3178.631836 69.266 -1.4604
3201.665527 69.199 -41.2100
3224.866211 68.919 -137.5144
3248.234863 68.944 -157.5791
3271.772949 68.586 -144.9580
3295.481445 68.117 -60.7456
3319.361816 67.918 -40.5840
3343.415283 67.639 0.1687
3367.643066 67.284 74.8125
3392.046387 66.722 56.7832
3416.626465 66.490 -9.2488
3441.384766 66.784 -46.5828
3466.322510 67.198 -66.8694
3491.440918 67.013 -174.0649
3516.741455 66.243 82.1736
3542.225098 65.547 47.6274
3567.893555 65.025 18.3821
3593.748047 64.560 -9.7998
3619.789795 64.302 -34.5518
3646.020264 64.541 -61.3701
3672.440918 64.988 -36.9924
3699.052979 65.257 6.9990
3725.857910 65.630 44.4536
3752.856934 65.679 29.9236
3780.051758 65.263 3.7556
3807.443604 65.134 -62.3123
3835.033936 65.580 160.2295
3862.824219 65.849 104.2373
3890.815918 66.311 99.7310
3919.010254 67.157 114.9531
3947.408936 68.146 177.7812
3976.013428 68.976 -149.0981
4004.825195 68.470 -101.8289
4033.845703 66.926 28.3623
4063.076660 65.934 19.8425
4092.519287 65.811 -2.5532
4122.175293 65.785 -2.1028
4152.046387 65.810 -12.9683
4182.133789 66.532 -18.3230
4212.439453 67.664 5.2771
4242.964355 67.911 16.5413
4273.710449 66.740 5.5938
4304.679688 65.041 -11.3870
4335.873047 64.176 -17.4536
4367.292480 64.533 -106.7612
4398.939453 64.753 -137.6377
4430.815918 63.982 -125.6355
4462.923340 62.704 -164.5593
4495.263672 61.646 110.7537
4527.838379 61.075 69.0054
4560.648926 61.069 40.5181
4593.697266 61.487 26.4851
4626.984863 61.992 -2.8696
4660.513672 62.382 -19.4956
4694.285645 62.476 -27.4124
4728.302246 62.317 -13.7910
4762.565430 62.258 67.1624
4797.077148 61.907 68.7620
4831.838867 61.233 58.2815
4866.852539 60.990 33.8831
4902.119629 61.547 28.5728
4937.642578 62.314 21.3459
4973.422852 63.128 26.7800
5009.462402 63.680 26.6724
5045.763184 63.705 39.6086
5082.326660 63.842 20.2622
5119.155273 64.863 -33.5762
5156.250977 66.180 -62.8145
5193.615234 67.573 77.0527
5231.250488 68.629 66.7959
5269.158203 69.293 40.9763
5307.340820 69.525 29.0920
5345.799805 69.192 7.0002
5384.537598 68.627 -62.2305
5423.556152 68.259 -35.9312
5462.857422 67.965 8.4597
5502.443359 67.021 10.1494
5542.316406 65.727 -0.6919
5582.478516 65.177 -38.0774
5622.931641 65.682 -40.5774
5663.677734 66.490 -11.0408
5704.719238 67.193 -1.0164
5746.058105 67.400 10.4546
5787.696289 67.021 -127.5857
5829.636230 67.294 -152.9570
5871.880371 68.212 -148.3018
5914.430664 68.507 -119.6843
5957.289062 67.966 -35.0996
6000.458008 67.309 -31.7900
6043.939941 66.587 -37.0427
6087.736816 65.685 -111.3867
6131.851074 64.424 -108.2246
6176.285156 62.895 44.2039
6221.041016 61.411 46.8728
6266.121094 60.853 26.8914
6311.527832 61.325 5.8215
6357.263672 62.056 -13.8232
6403.331055 62.650 -19.3228
6449.732422 62.801 -17.1646
6496.469727 62.475 -24.3574
6543.545898 61.963 -48.6284
6590.962891 61.605 -89.4792
6638.723633 61.434 -92.1111
6686.830566 61.193 -82.5244
6735.286133 61.055 52.3938
6784.092773 61.355 76.5869
6833.252930 61.693 25.4841
6882.769531 61.864 2.4016
6932.645020 62.017 -8.8613
6982.881836 62.052 -18.3660
7033.482910 61.722 -33.9302
7084.450195 61.387 -75.5708
7135.787109 61.698 -128.7974
7187.496094 61.892 -168.7056
7239.579590 61.401 174.4888
7292.040527 60.500 169.8506
7344.881836 60.202 171.6489
7398.105957 60.880 133.9321
7451.715820 61.838 113.2437
7505.713867 62.803 116.4246
7560.103516 63.842 90.5837
7614.887207 64.455 60.6028
7670.067871 64.634 40.1060
7725.648438 64.833 8.0408
7781.631836 64.829 -1.3557
7838.020508 64.481 -0.4836
7894.817871 64.676 -8.5881
7952.026855 65.421 -41.8879
8009.650391 65.932 -113.2954
8067.691406 65.963 -177.3591
8126.153320 65.388 174.4763
8185.038574 64.788 63.7900
8244.350586 64.768 38.4421
8304.092773 65.032 34.1584
8364.267578 65.679 4.4707
8424.878906 66.779 -24.0178
8485.928711 67.907 -74.1008
8547.420898 68.714 -139.7769
8609.359375 69.137 -106.5249
8671.746094 69.097 -15.1963
8734.584961 68.580 3.3843
8797.878906 67.705 39.7971
8861.631836 66.665 40.9404
8925.846680 65.859 55.0601
8990.527344 65.407 127.0146
9055.676758 64.929 -86.1067
9121.297852 64.433 -42.4380
9187.394531 64.225 -53.6489
9253.969727 63.957 -69.5278
9321.027344 63.195 -26.3484
9388.571289 62.254 75.1541
9456.604492 61.435 113.0405
9525.130859 60.883 68.2161
9594.154297 60.404 9.5308
9663.677734 60.280 -1.1753
9733.705078 60.646 -10.2402
9804.239258 61.456 -27.2358
9875.285156 62.357 -37.6646
9946.845703 62.758 -41.5083
10018.924805 62.972 127.9509
10091.526367 63.003 110.1418
10164.653320 62.243 88.1191
10238.310547 61.287 59.4170
10312.501953 61.343 8.3689
10387.230469 62.173 -4.2886
10462.500977 63.048 3.8442
10538.316406 63.475 0.9795
10614.681641 63.385 -26.3340
10691.599609 62.962 -44.6880
10769.075195 62.243 -63.1897
10847.112305 61.357 -86.8547
10925.714844 61.102 -37.0940
11004.886719 62.099 -13.2051
11084.632812 63.593 -3.4468
11164.957031 64.665 -25.7908
11245.863281 65.328 -52.9790
11327.355469 65.601 -34.1147
11409.438477 65.371 50.4070
11492.116211 64.468 23.8916
11575.392578 63.352 -0.5283
11659.272461 63.001 -13.0725
11743.760742 63.776 -24.3628
11828.861328 64.626 -63.9109
11914.578125 64.623 -105.3894
12000.916016 63.641 -139.8372
12087.879883 62.153 174.3391
12175.473633 60.931 82.0413
12263.702148 60.677 85.0879
12352.570312 61.559 65.6665
12442.082031 62.710 31.9294
12532.242188 63.024 31.3052
12623.055664 62.305 16.4111
12714.527344 60.895 -7.6411
12806.662109 59.329 -17.4688
12899.464844 58.157 -42.0085
12992.939453 57.689 -126.3882
13087.091797 57.870 179.6335
13181.925781 58.334 174.0613
13277.447266 58.727 -167.7146
13373.661133 58.962 125.9543
13470.572266 59.350 43.3530
13568.185547 59.976 28.3682
13666.505859 60.217 -3.3237
13765.539062 59.793 -15.9175
13865.290039 58.937 -28.3540
13965.763672 58.169 -44.2617
14066.965820 57.803 -44.5918
14168.900391 57.857 -55.4512
14271.574219 58.128 -91.8145
14374.992188 58.283 -106.4194
14479.159180 58.256 -111.7729
14584.081055 58.186 -66.0283
14689.763672 58.136 -30.7852
14796.211914 58.269 -45.4746
14903.431641 58.365 -73.6221
15011.427734 58.035 -76.5190
15120.207031 57.276 -84.1499
15229.774414 56.436 -37.2363
15340.135742 56.002 1.9131
15451.296875 56.210 -33.6943
15563.263672 56.641 -65.2217
15676.041016 57.041 136.3286
15789.635742 57.385 119.8892
15904.053711 57.374 -36.6426
16019.300781 56.875 -77.1201
16135.382812 56.766 -84.7363
16252.306641 57.562 124.6729
16370.077148 58.328 -26.6689
16488.701172 58.357 -58.5044
16608.185547 57.663 -71.9482
16728.535156 56.665 -86.8477
16849.757812 55.783 -102.6753
16971.857422 55.735 -137.1616
17094.841797 56.352 121.7896
17218.718750 56.640 77.3120
17343.492188 56.201 57.7793
17469.169922 55.588 10.7236
17595.757812 55.568 -12.0278
17723.263672 55.732 -19.3965
17851.693359 55.786 -33.3018
17981.054688 55.872 -30.7041
18111.353516 56.121 125.9341
18242.595703 56.537 130.4702
18374.789062 56.759 104.1543
18507.939453 56.570 77.7524
18642.054688 57.068 59.3696
18777.142578 60.291 5.7339
18913.208984 65.872 -17.6792
19050.261719 71.664 11.9634
19188.308594 76.319 18.7637
19327.355469 79.050 13.4966
19467.410156 79.562 167.1982
19608.478516 79.757 139.0552
19750.570312 80.852 123.7314
19893.691406 80.638 64.3052
20037.849609 0.000 38.3038
