* Measurement data measured by REW V5.30.2
* Source: EXCL: Microphone (Umik-1  Gain: 18dB), MICROPHONE (Master Volume), L, volume: 0.540
* Format: 256k Log Swept Sine, 1 sweep at -20.0 dBFS with no timing reference
* Dated: Jan 17, 2024 5:35:59 PM
* REW Settings:
*  C-weighting compensation: Off
*  Target level: 75.0 dB
* Note: ; 
* Measurement: Bad Fan 1
* Smoothing: 1/48 octave
* Frequency Step: 96 ppo
* Start Frequency: 20.141602 Hz
*
* Freq(Hz) SPL(dB) Phase(degrees)
20.141602 70.348 -26.3599
20.287556 70.373 -20.2004
20.434568 70.399 -13.5154
20.582645 70.403 -7.2938
20.731796 70.350 -1.0544
20.882027 70.140 4.6689
21.033346 69.724 9.9601
21.185762 69.023 15.4380
21.339283 67.868 21.7305
21.493916 66.330 30.4635
21.649670 64.917 45.2485
21.806553 63.865 74.3909
21.964573 63.810 113.3347
22.123737 65.268 138.6039
22.284056 67.291 151.4146
22.445536 68.802 157.9124
22.608185 69.841 161.9051
22.772013 70.419 164.7509
22.937029 70.534 167.1087
23.103241 70.223 169.5780
23.270657 69.494 172.7359
23.439285 68.338 176.9768
23.609137 66.703 -176.4985
23.780218 64.808 -165.6922
23.952539 62.927 -146.9568
24.126110 61.576 -112.9479
24.300938 61.752 -75.1264
24.477032 63.055 -50.1871
24.654402 64.465 -36.1803
24.833057 65.784 -27.0364
25.013008 66.731 -21.4005
25.194263 67.271 -17.4368
25.376831 67.359 -15.1836
25.560722 66.937 -14.0117
25.745945 65.831 -13.1257
25.932510 64.059 -12.1492
26.120428 61.811 -5.8451
26.309708 59.953 37.4303
26.500359 60.994 113.9479
26.692390 63.772 123.6958
26.885815 65.912 121.1775
27.080641 67.392 115.6594
27.276878 68.168 107.7798
27.474539 68.345 98.4168
27.673630 68.025 86.9592
27.874165 67.248 74.0897
28.076153 66.041 58.2961
28.279604 64.428 40.6613
28.484529 62.467 17.2698
28.690941 60.569 -13.7853
28.898848 59.252 -72.2396
29.108261 59.438 -131.9836
29.319191 60.458 -165.5623
29.531651 61.411 171.3261
29.745649 61.770 154.9366
29.961199 61.291 138.4586
30.178310 59.864 125.0724
30.396996 58.439 107.2240
30.617264 58.889 -64.4045
30.839128 60.965 -86.9784
31.062601 63.683 -101.6059
31.287693 65.658 -115.2026
31.514416 66.870 -128.8861
31.742783 67.452 -143.7202
31.972803 67.505 -157.9594
32.204491 67.059 -173.0902
32.437859 66.102 173.5091
32.672916 64.539 162.8115
32.909679 62.454 158.7981
33.148155 60.911 175.3590
33.388359 61.372 -145.4045
33.630306 63.926 -128.8268
33.874004 66.182 -129.1758
34.119469 67.705 -133.8870
34.366711 68.386 -140.7321
34.615746 68.294 -147.5186
34.866585 67.416 -154.2369
35.119244 65.709 -160.5725
35.373734 63.045 -164.4242
35.630066 59.851 -160.3333
35.888256 57.221 -92.1139
36.148315 57.402 -52.6272
36.410259 58.780 -58.0741
36.674103 60.205 -74.2062
36.939857 61.555 -96.1922
37.207539 63.056 -117.0400
37.477161 64.539 -132.8645
37.748737 65.791 -143.8456
38.022282 66.617 -151.2364
38.297806 66.916 -156.0500
38.575329 66.617 -158.8828
38.854862 65.657 -159.4993
39.136421 63.989 -156.0035
39.420021 61.876 -142.0741
39.705673 60.677 -104.2345
39.993397 61.251 -66.1984
40.283207 62.884 -52.5335
40.575115 64.110 -49.4512
40.869141 64.692 -50.3706
41.165295 64.655 -53.3937
41.463596 64.060 -57.9690
41.764057 62.940 -64.0509
42.066696 61.275 -71.9579
42.371529 59.012 -82.9538
42.678570 56.584 -104.9190
42.987835 55.716 167.5320
43.299343 57.240 118.1085
43.613110 59.488 105.5013
43.929150 61.112 100.3416
44.247478 62.042 99.0286
44.568115 62.375 100.2501
44.891075 62.148 102.9364
45.216373 61.296 106.1964
45.544029 59.670 109.8211
45.874062 57.422 116.3342
46.206486 55.868 -159.8200
46.541317 56.832 -86.2023
46.878574 58.526 -80.2814
47.218277 59.251 -75.8321
47.560440 58.914 -68.2573
47.905083 57.824 -55.2037
48.252224 56.360 -38.1580
48.601879 54.624 -23.5908
48.954067 52.958 -15.9046
49.308807 53.258 174.4357
49.666119 55.344 172.3279
50.026020 57.114 171.5475
50.388531 57.561 170.5074
50.753666 56.589 169.7450
51.121449 54.246 170.2474
51.491894 50.999 177.1854
51.865025 48.499 -21.9368
52.240860 48.397 5.4267
52.619419 50.613 67.8217
53.000721 53.622 96.3011
53.384785 55.951 96.6102
53.771633 57.046 86.1062
54.161285 57.084 64.2325
54.553761 56.669 24.6126
54.949081 56.301 -17.8412
55.347263 55.805 -38.5714
55.748333 55.469 -29.9559
56.152309 56.708 10.5841
56.559212 58.865 21.7111
56.969063 60.122 14.6547
57.381886 59.979 2.2046
57.797699 58.534 -10.3900
58.216526 56.350 -15.6466
58.638386 55.151 -8.5628
59.063305 55.881 -7.5698
59.491302 56.616 -17.8291
59.922401 56.165 -29.2091
60.356625 55.222 -21.9097
60.793995 56.002 28.1852
61.234531 58.063 26.1884
61.678261 59.438 3.9865
62.125206 59.578 -21.6757
62.575390 58.719 -44.0959
63.028835 58.170 11.8519
63.485569 59.098 74.1496
63.945610 60.048 57.4657
64.408989 59.674 40.4418
64.875725 58.177 31.0209
65.345840 57.138 136.9061
65.819366 57.354 137.2878
66.296318 57.357 112.7678
66.776726 56.713 70.2496
67.260620 56.300 -30.3988
67.748016 56.714 -109.9878
68.238945 57.473 -161.9742
68.733429 57.969 152.8866
69.231499 57.976 109.5568
69.733177 57.693 55.1625
70.238495 57.532 -13.4235
70.747475 57.519 -70.1598
71.260139 57.336 -122.1942
71.776520 56.809 -176.5135
72.296638 55.868 136.1252
72.820526 54.665 98.1371
73.348213 54.218 -102.3165
73.879723 54.829 -134.5724
74.415085 55.188 -166.2700
74.954330 54.907 143.3011
75.497482 54.569 74.3027
76.044571 54.368 29.1023
76.595619 54.047 -6.8457
77.150665 53.812 -57.1636
77.709732 53.901 -111.1450
78.272850 53.695 -146.3796
78.840050 52.441 -172.6943
79.411354 50.257 155.4448
79.986801 48.440 -34.5895
80.566422 48.463 -97.3355
81.150238 50.314 -134.4150
81.738289 52.561 -143.0424
82.330597 54.041 -142.6655
82.927200 54.248 -136.5481
83.528122 53.733 -106.8284
84.133400 53.638 -67.6080
84.743065 53.311 -64.4088
85.357147 51.976 -91.1796
85.975677 50.354 152.8813
86.598694 49.024 131.0941
87.226227 48.854 104.2263
87.858307 50.856 -14.7080
88.494965 52.898 -29.0331
89.136238 53.280 -41.0203
89.782158 51.722 -57.8457
90.432755 48.792 -80.8672
91.088066 46.356 -84.8225
91.748131 46.451 -68.6436
92.412979 48.220 -18.0043
93.082642 50.314 3.3634
93.757156 51.435 -12.4390
94.436562 51.312 -41.1604
95.120888 50.308 -63.9424
95.810173 48.799 -75.6448
96.504456 47.298 -97.9310
97.203766 46.676 139.5861
97.908142 46.512 104.9727
98.617622 45.842 70.4480
99.332245 45.845 4.5336
100.052048 47.922 -111.2004
100.777069 50.534 -148.1398
101.507339 51.971 -155.4277
102.242905 51.922 -144.2357
102.983795 51.221 -97.7559
103.730057 50.524 -66.1503
104.481728 49.592 -69.7031
105.238846 49.338 -160.1747
106.001450 50.060 168.0421
106.769577 50.133 165.2679
107.543274 48.973 170.4041
108.322578 47.252 -172.0680
109.107529 46.859 -116.6504
109.898170 48.321 -106.4572
110.694534 49.586 -133.0797
111.496674 49.791 -162.1080
112.304626 49.498 175.0088
113.118431 50.414 136.9012
113.938133 52.320 98.0845
114.763779 53.396 84.4109
115.595406 53.379 96.9633
116.433060 53.488 142.0215
117.276779 53.831 146.9658
118.126617 53.471 126.0763
118.982613 52.333 95.9901
119.844810 51.186 82.5712
120.713257 51.569 102.2955
121.587997 52.975 106.2538
122.469070 53.553 95.7312
123.356529 52.970 86.2764
124.250420 51.988 86.9390
125.150787 51.906 111.8881
126.057678 53.149 149.1174
126.971146 54.263 158.6479
127.891228 54.293 159.3334
128.817978 54.097 -179.7096
129.751450 55.057 -155.4467
130.691681 56.095 -170.8910
131.638733 56.004 162.8571
132.592636 54.632 139.7755
133.553452 52.149 120.9679
134.521240 49.376 18.2891
135.496033 48.126 -25.5450
136.477890 48.394 -17.9426
137.466858 49.278 6.0084
138.462997 50.229 22.3364
139.466354 50.465 36.5725
140.476990 50.062 52.4077
141.494949 49.089 51.1173
142.520279 47.712 41.7762
143.553040 46.424 50.2822
144.593277 45.906 122.0316
145.641052 46.253 -153.0935
146.696426 46.431 -115.4043
147.759445 46.411 -44.2330
148.830170 46.781 -83.9698
149.908661 47.730 -151.5282
150.994965 48.369 -171.1111
152.089142 48.650 150.9509
153.191238 49.216 98.4011
154.301331 49.194 91.0316
155.419464 48.286 177.4175
156.545700 47.114 -128.1333
157.680099 46.000 -78.8237
158.822708 45.777 -28.2731
159.973602 47.279 23.5586
161.132843 49.808 79.3547
162.300476 52.082 125.4102
163.476578 53.489 -131.3511
164.661194 53.730 -96.4464
165.854401 52.694 -56.4652
167.056244 50.991 -3.0123
168.266800 49.635 -146.7808
169.486130 49.000 -99.7100
170.714294 48.570 -8.7870
171.951355 48.066 124.4182
173.197388 47.426 174.8297
174.452454 46.948 -176.9434
175.716614 47.178 118.8640
176.989929 47.638 105.9337
178.272476 47.266 52.9082
179.564316 46.248 110.1370
180.865509 45.729 167.0557
182.176132 45.823 117.1155
183.496262 45.856 -30.3862
184.825958 45.874 -60.5613
186.165283 45.738 -73.8715
187.514313 45.417 -67.7440
188.873123 45.992 -0.3828
190.241776 46.732 -13.4073
191.620346 46.627 -18.5193
193.008911 46.384 5.8812
194.407532 46.798 49.4004
195.816284 47.508 73.8018
197.235245 48.545 -18.0629
198.664490 49.862 -63.1672
200.104095 51.206 -59.7432
201.554138 52.645 -59.5844
203.014679 53.330 -58.9990
204.485809 52.373 -54.4908
205.967590 49.896 -51.0951
207.460114 47.187 -54.7943
208.963455 45.993 -83.4806
210.477692 46.552 -124.3746
212.002899 47.608 -107.5221
213.539154 48.009 -72.9460
215.086548 47.828 -52.0614
216.645157 47.767 -71.1106
218.215057 47.900 -104.8127
219.796341 47.949 -124.4021
221.389069 48.908 -92.1403
222.993347 51.031 37.4617
224.609253 53.018 1.8347
226.236862 53.747 -54.6431
227.876266 52.968 -164.6674
229.527557 51.160 -170.0785
231.190811 49.193 -151.5797
232.866119 48.801 -125.4746
234.553558 50.123 -76.3563
236.253235 51.941 -69.7151
237.965225 53.652 -96.7468
239.689621 54.375 -96.7516
241.426514 53.491 -84.7574
243.175995 51.804 -76.6329
244.938141 50.703 -65.9159
246.713058 50.563 -109.4081
248.500839 51.240 -154.5287
250.301575 51.460 -158.2002
252.115356 50.318 -139.4388
253.942291 48.924 -24.8440
255.782455 49.030 -42.6984
257.635956 50.066 -96.9821
259.502899 51.221 -129.4077
261.383362 52.430 -142.2825
263.277466 52.663 -158.6625
265.185272 51.537 167.1598
267.106903 50.213 -87.3447
269.042480 49.748 -40.5367
270.992065 50.107 -41.0006
272.955780 50.576 -77.8032
274.933716 50.554 -94.8212
276.925995 50.811 -146.3557
278.932709 51.552 -154.5969
280.953979 52.059 -92.7256
282.989899 51.691 -94.9451
285.040558 50.623 -132.0492
287.106079 50.230 -112.3857
289.186554 50.735 -103.2968
291.282104 51.236 -108.2893
293.392853 52.029 -112.3580
295.518890 53.477 -97.0206
297.660339 54.681 -105.2734
299.817322 55.644 -121.4500
301.989929 56.172 -113.5979
304.178284 56.032 -127.9600
306.382477 55.192 -139.8634
308.602661 53.655 -140.7548
310.838928 51.994 -142.6028
313.091400 51.106 -153.4829
315.360199 51.139 -158.3939
317.645416 50.974 -160.0983
319.947205 50.064 -177.4764
322.265686 49.962 159.0299
324.600952 51.315 169.2629
326.953156 52.585 -177.1082
329.322388 52.923 -161.8420
331.708801 52.507 -150.8427
334.112488 51.378 -178.9108
336.533600 49.993 168.6484
338.972260 49.224 170.5624
341.428589 49.419 178.9329
343.902710 50.452 -140.3632
346.394775 52.641 -92.8867
348.904907 55.269 -80.1759
351.433228 57.252 -107.6709
353.979858 58.320 -134.7709
356.544952 58.187 -128.6337
359.128632 56.808 -133.3230
361.731018 54.898 -122.1991
364.352264 53.936 -112.8993
366.992523 54.470 -147.4913
369.651917 55.141 -150.1007
372.330566 54.680 -122.7770
375.028625 53.168 -101.8580
377.746246 51.337 -94.2788
380.483551 49.592 -92.3934
383.240692 49.014 72.0237
386.017822 49.538 -55.3503
388.815063 50.234 -102.0475
391.632568 51.142 -162.9023
394.470490 52.184 145.9017
397.328979 52.929 151.0665
400.208191 53.558 -150.1328
403.108276 54.417 -168.2072
406.029358 55.211 165.5985
408.971619 55.377 -174.9244
411.935181 54.637 -158.6165
414.920227 53.437 -138.0066
417.926910 52.563 -143.4899
420.955383 52.114 -176.5662
424.005798 51.645 -157.2490
427.078308 51.877 -128.9559
430.173096 53.072 -128.5659
433.290314 54.112 -138.0247
436.430115 54.472 -156.4409
439.592682 54.474 155.3296
442.778137 54.625 146.4111
445.986694 54.760 -141.0272
449.218506 55.080 -128.1794
452.473724 55.753 -117.3167
455.752533 56.056 -78.9705
459.055115 55.515 -66.2946
462.381622 54.445 -83.7654
465.732239 53.633 -112.2744
469.107117 53.482 -116.6761
472.506470 53.270 -112.6921
475.930450 52.747 -100.9998
479.379242 52.458 -106.3804
482.853027 52.556 -127.2424
486.351990 52.691 -126.1508
489.876282 52.537 -111.2030
493.426117 52.418 -119.4321
497.001678 53.416 -84.7219
500.603149 55.212 -72.7852
504.230713 56.474 -101.7756
507.884583 56.451 -126.4540
511.564911 55.577 -127.5449
515.271912 55.132 -114.0387
519.005798 55.689 -99.3654
522.766724 56.509 -78.0363
526.554932 57.301 -79.2111
530.370544 57.852 -98.7139
534.213806 58.153 -115.7040
538.084961 58.203 -125.5253
541.984131 58.440 -128.0204
545.911560 58.718 -128.6411
549.867432 58.619 -128.2827
553.851990 58.505 -129.3464
557.865417 58.646 -131.7832
561.907959 58.894 -125.6295
565.979797 59.224 -117.9874
570.081116 59.723 -119.5275
574.212158 60.619 -124.4626
578.373108 61.569 -134.7159
582.564209 61.946 -144.6073
586.785706 61.865 -152.4242
591.037781 61.580 -158.1799
595.320679 61.153 -158.5244
599.634644 60.827 -158.9072
603.979858 60.454 -162.6340
608.356567 60.761 -150.4308
612.764954 62.497 -136.1580
617.205322 64.145 -149.4502
621.677856 64.658 -162.8402
626.182800 64.293 -170.9358
630.720398 63.980 -169.8597
635.290833 64.506 -164.5317
639.894409 65.533 -169.3773
644.531372 66.318 178.3892
649.201904 66.461 168.2130
653.906311 65.904 159.4636
658.644775 64.875 152.3660
663.417603 64.026 150.7881
668.224976 63.742 153.0344
673.067200 63.714 154.1241
677.944519 63.506 149.2258
682.857178 62.734 139.6882
687.805420 61.610 138.9979
692.789551 61.006 153.1752
697.809814 61.376 165.3940
702.866455 62.089 164.8005
707.959717 62.604 159.9432
713.089905 63.023 160.8475
718.257263 63.492 162.9126
723.462036 63.835 156.4058
728.704529 63.739 144.6063
733.985046 63.108 140.2344
739.303833 62.127 137.7745
744.661133 61.208 136.2604
750.057251 60.804 135.5151
755.492493 60.759 132.0817
760.967102 60.740 132.4972
766.481384 60.990 139.3219
772.035645 61.370 137.5988
777.630127 61.802 135.3795
783.265137 61.969 129.8694
788.940979 61.516 128.0715
794.657959 60.578 129.7473
800.416382 59.824 130.4447
806.216553 59.578 136.0679
812.058716 59.585 143.4154
817.943237 59.604 139.7029
823.870361 59.734 135.2460
829.840454 60.175 139.8652
835.853821 60.769 143.4209
841.910767 60.871 141.2045
848.011597 60.322 137.3005
854.156616 59.967 137.2367
860.346191 60.572 144.0699
866.580627 61.779 148.9196
872.860229 62.589 137.0509
879.185364 62.164 120.5770
885.556274 60.755 125.1735
891.973389 59.572 138.4014
898.437012 59.229 140.1045
904.947449 59.931 160.7019
911.505066 61.408 165.3777
918.110229 62.401 153.9867
924.763245 62.492 146.2887
931.464478 62.238 143.0247
938.214233 61.887 134.9557
945.012939 61.164 118.7863
951.860901 60.035 114.0988
958.758484 59.874 173.1813
965.706055 61.306 167.6488
972.703979 62.761 154.3683
979.752563 63.514 145.2229
986.852234 63.709 136.0735
994.003357 63.334 126.2163
1001.206299 62.022 113.9958
1008.461426 59.779 105.3823
1015.769165 57.769 125.6935
1023.129822 57.476 143.4471
1030.543823 58.089 148.3367
1038.011597 58.428 152.6686
1045.533447 58.408 158.9205
1053.109863 58.421 162.2737
1060.741089 58.451 151.7786
1068.427612 58.593 148.5917
1076.169922 58.617 144.9069
1083.968262 58.780 141.9153
1091.823120 59.328 147.3699
1099.734863 59.397 164.6556
1107.703979 59.388 -173.3619
1115.730835 60.247 -173.3518
1123.815918 61.651 -178.1819
1131.959595 63.005 174.1198
1140.162231 63.427 152.5636
1148.424316 62.603 132.9524
1156.746216 61.761 157.4399
1165.128418 62.643 177.6719
1173.571411 64.256 171.9879
1182.075562 65.307 162.7418
1190.641357 65.492 153.9319
1199.269287 64.965 146.4552
1207.959717 64.110 145.6687
1216.713135 63.792 148.6737
1225.529907 64.323 147.1792
1234.410645 65.129 150.0220
1243.355713 65.938 154.2191
1252.365601 66.507 148.7109
1261.440796 66.435 140.4677
1270.581665 65.811 133.9581
1279.788818 65.123 132.1879
1289.062744 64.875 132.0664
1298.403809 65.127 133.0365
1307.812622 65.478 131.5135
1317.289551 65.892 130.7349
1326.835205 66.456 133.7037
1336.449951 66.755 129.0024
1346.134399 66.493 116.9694
1355.889038 65.943 114.7053
1365.714355 65.626 114.8979
1375.610840 66.007 108.1630
1385.579102 66.498 103.4272
1395.619629 66.831 103.9668
1405.732910 67.146 101.1077
1415.919434 66.966 89.0770
1426.179810 65.998 73.4242
1436.514526 64.598 66.7065
1446.924072 63.582 76.0718
1457.409058 63.569 85.9910
1467.970093 64.225 81.3732
1478.607666 64.688 79.4432
1489.322266 64.645 81.6154
1500.114502 63.917 79.9751
1510.984985 62.911 67.4083
1521.934204 62.248 52.2537
1532.962769 62.200 62.8872
1544.071289 63.394 -177.6073
1555.260254 65.575 -138.7860
1566.530273 67.180 -109.1638
1577.881958 67.271 -38.0924
1589.315918 65.973 -81.5956
1600.832764 64.401 -120.7979
1612.433105 64.088 -146.1975
1624.117432 64.697 179.8317
1635.886475 65.086 153.4836
1647.740723 65.247 170.3997
1659.680908 66.088 -170.9240
1671.707642 67.054 -173.4709
1683.821533 67.093 174.3630
1696.023193 66.551 171.1331
1708.313232 66.252 170.9347
1720.692383 66.590 163.9299
1733.161255 67.282 154.5587
1745.720459 67.456 145.3743
1758.370728 66.933 140.6128
1771.112549 66.213 145.8167
1783.946777 65.583 145.3981
1796.874023 65.489 138.9130
1809.894897 66.203 133.9032
1823.010132 66.986 128.4309
1836.220459 67.045 120.0967
1849.526489 66.098 113.6379
1862.928955 64.849 118.0624
1876.428467 64.418 126.0745
1890.025879 64.237 120.7567
1903.721802 63.908 119.6393
1917.516968 64.627 128.4708
1931.412109 66.828 131.0396
1945.407959 69.257 127.2391
1959.505127 70.213 121.2478
1973.704468 68.718 113.8364
1988.006714 65.992 111.6995
2002.412598 64.714 126.4027
2016.922852 65.005 140.3718
2031.538330 64.924 131.7036
2046.259644 64.199 119.6165
2061.087646 63.325 122.5269
2076.023193 62.982 121.0524
2091.066895 62.748 112.0513
2106.219727 62.516 120.7682
2121.482178 62.957 135.7626
2136.855225 63.126 127.5823
2152.339844 62.451 123.5270
2167.936523 61.708 117.0825
2183.646240 61.330 111.6560
2199.469727 61.406 158.3074
2215.407959 61.531 159.8890
2231.461670 61.350 157.6552
2247.631836 62.337 177.9229
2263.919189 64.643 -177.3389
2280.324463 66.165 174.4088
2296.848633 66.219 164.1547
2313.492432 65.414 145.2130
2330.256836 64.893 139.3749
2347.142822 64.605 138.4277
2364.151123 64.079 150.7140
2381.282715 63.651 149.4268
2398.538574 63.422 140.9866
2415.919434 63.176 132.9392
2433.426270 62.887 145.9222
2451.059814 62.853 150.4529
2468.821289 63.161 153.5427
2486.711426 63.306 156.3135
2504.731201 63.700 159.2686
2522.881592 64.893 167.7140
2541.163330 65.828 168.3729
2559.577637 66.039 163.9452
2578.125488 66.444 177.9875
2596.807617 66.975 178.9213
2615.625244 67.204 152.7074
2634.579102 67.134 144.2362
2653.670410 66.604 151.3276
2672.899902 65.935 163.0800
2692.268799 65.641 165.5238
2711.778076 65.234 148.4185
2731.428711 64.453 145.5439
2751.221680 64.206 154.9130
2771.158203 65.045 176.2284
2791.239258 66.061 172.2944
2811.465820 66.089 151.0962
2831.838867 65.479 138.7686
2852.359619 65.409 142.3586
2873.029053 65.765 150.4833
2893.848145 65.485 140.2039
2914.818115 64.397 131.1743
2935.940186 63.284 116.8469
2957.215332 62.763 93.7839
2978.644531 62.078 92.6400
3000.229004 61.319 159.6586
3021.969971 61.654 157.2815
3043.868408 62.645 165.2850
3065.925537 63.590 -170.6619
3088.142578 64.066 -173.2437
3110.520508 63.824 178.9580
3133.060547 63.652 -176.1711
3155.763916 63.723 -150.0886
3178.631836 63.865 -125.7893
3201.665527 64.410 -133.2589
3224.866211 64.939 -143.1819
3248.234863 64.970 -147.7010
3271.772949 64.777 -149.0425
3295.481445 64.275 -155.1373
3319.361816 63.543 -159.5760
3343.415283 63.011 -165.2892
3367.643066 62.950 177.5034
3392.046387 63.210 171.0165
3416.626465 63.343 -173.1870
3441.384766 63.515 -162.8569
3466.322510 63.868 -176.3085
3491.440918 63.883 167.8857
3516.741455 63.560 -173.1797
3542.225098 63.930 -153.5919
3567.893555 64.435 -166.7278
3593.748047 64.211 -166.8174
3619.789795 64.373 -142.6158
3646.020264 65.056 -154.9108
3672.440918 65.152 -174.8965
3699.052979 65.099 -172.6248
3725.857910 65.601 -162.5042
3752.856934 66.189 -157.9890
3780.051758 66.680 -168.8583
3807.443604 66.946 -178.8102
3835.033936 67.627 -173.3282
3862.824219 69.105 -176.1090
3890.815918 70.935 174.7025
3919.010254 71.971 166.2529
3947.408936 71.343 157.0248
3976.013428 70.533 148.2371
4004.825195 70.388 129.5957
4033.845703 69.861 113.5504
4063.076660 69.311 102.9464
4092.519287 68.567 112.0958
4122.175293 67.715 120.5955
4152.046387 67.291 85.2419
4182.133789 67.309 72.2688
4212.439453 67.664 105.9515
4242.964355 68.253 22.7646
4273.710449 68.513 -67.6327
4304.679688 68.460 -129.8685
4335.873047 68.512 -162.0148
4367.292480 68.592 -154.0508
4398.939453 68.742 -164.5387
4430.815918 68.374 174.6763
4462.923340 67.247 160.3999
4495.263672 66.301 154.1490
4527.838379 66.098 148.1010
4560.648926 65.741 134.0688
4593.697266 64.919 120.5199
4626.984863 64.330 115.6740
4660.513672 63.991 101.7042
4694.285645 63.301 89.6859
4728.302246 63.236 134.7365
4762.565430 64.241 116.6816
4797.077148 65.125 97.4980
4831.838867 65.105 176.0812
4866.852539 64.274 167.3905
4902.119629 63.507 -175.2981
4937.642578 63.563 -175.3325
4973.422852 63.813 167.4794
5009.462402 64.433 150.0521
5045.763184 65.276 144.4135
5082.326660 65.808 146.6628
5119.155273 65.932 146.3184
5156.250977 65.808 156.3193
5193.615234 65.799 154.2057
5231.250488 65.588 142.0128
5269.158203 65.412 147.5769
5307.340820 65.299 140.1814
5345.799805 64.987 136.7035
5384.537598 64.854 153.2889
5423.556152 65.310 159.5024
5462.857422 66.149 168.6570
5502.443359 66.914 165.5474
5542.316406 67.169 152.3124
5582.478516 67.393 154.0769
5622.931641 67.759 147.5071
5663.677734 67.952 140.8440
5704.719238 67.879 136.2637
5746.058105 67.581 124.5253
5787.696289 67.194 122.2034
5829.636230 66.776 120.4409
5871.880371 66.385 107.7994
5914.430664 66.277 95.1658
5957.289062 66.253 89.4236
6000.458008 66.097 88.1147
6043.939941 65.940 100.3596
6087.736816 65.845 102.4435
6131.851074 65.641 111.7816
6176.285156 65.586 106.8816
6221.041016 65.227 100.5502
6266.121094 64.714 119.2443
6311.527832 64.430 117.3516
6357.263672 64.525 117.8323
6403.331055 64.513 105.6012
6449.732422 64.168 93.0901
6496.469727 63.905 1.0406
6543.545898 64.138 -69.2456
6590.962891 64.409 -121.5173
6638.723633 64.490 -148.3086
6686.830566 64.807 -160.7612
6735.286133 65.106 -166.2327
6784.092773 65.583 -169.0276
6833.252930 66.363 -176.6948
6882.769531 67.235 -169.7231
6932.645020 68.047 -167.8528
6982.881836 68.616 -165.6899
7033.482910 68.838 -176.7246
7084.450195 68.435 169.7769
7135.787109 67.682 163.3323
7187.496094 66.358 163.8467
7239.579590 65.053 -177.6812
7292.040527 64.551 -159.1743
7344.881836 64.530 -162.3396
7398.105957 64.541 -173.7275
7451.715820 64.494 -178.9849
7505.713867 64.412 177.5781
7560.103516 64.521 176.6995
7614.887207 64.604 178.4253
7670.067871 64.392 -172.9624
7725.648438 64.059 -170.3633
7781.631836 64.178 -168.9497
7838.020508 64.601 -166.7988
7894.817871 64.780 -164.3198
7952.026855 64.293 -155.6992
8009.650391 64.038 -154.6189
8067.691406 64.318 -158.9160
8126.153320 64.728 -166.7559
8185.038574 64.827 -172.4312
8244.350586 64.689 179.8645
8304.092773 64.345 174.7754
8364.267578 64.225 167.6924
8424.878906 64.602 163.7859
8485.928711 65.281 159.2686
8547.420898 65.872 163.4404
8609.359375 66.017 -146.0347
8671.746094 65.673 -119.9175
8734.584961 65.131 -124.0266
8797.878906 64.924 -130.5569
8861.631836 65.293 -130.7085
8925.846680 65.886 -115.4277
8990.527344 66.303 -106.2715
9055.676758 66.266 -113.9341
9121.297852 65.566 -125.3184
9187.394531 64.544 -129.9751
9253.969727 63.934 -121.5957
9321.027344 63.401 -127.1167
9388.571289 62.550 -129.8022
9456.604492 61.687 -127.1370
9525.130859 61.394 -125.6270
9594.154297 62.007 -130.1211
9663.677734 62.750 -144.0303
9733.705078 62.971 -161.4985
9804.239258 62.789 162.5273
9875.285156 62.845 146.8926
9946.845703 63.347 166.0474
10018.924805 63.857 155.9502
10091.526367 64.212 139.0100
10164.653320 64.485 167.8052
10238.310547 64.531 167.1362
10312.501953 64.444 137.4463
10387.230469 64.262 101.6938
10462.500977 64.185 98.1558
10538.316406 63.898 89.6365
10614.681641 63.021 75.0259
10691.599609 61.910 68.6895
10769.075195 60.826 83.3779
10847.112305 60.304 165.7939
10925.714844 60.664 161.6597
11004.886719 61.180 140.2854
11084.632812 61.545 124.1514
11164.957031 61.802 104.2876
11245.863281 61.888 81.4785
11327.355469 61.756 71.4753
11409.438477 61.391 78.6245
11492.116211 61.152 92.3611
11575.392578 61.097 95.5454
11659.272461 61.245 111.2432
11743.760742 61.458 136.0459
11828.861328 61.637 141.3618
11914.578125 61.456 146.8472
12000.916016 60.936 137.9614
12087.879883 60.116 127.3040
12175.473633 59.287 147.5557
12263.702148 59.194 168.5869
12352.570312 59.482 162.0903
12442.082031 59.393 153.4688
12532.242188 58.933 151.4980
12623.055664 58.370 152.6843
12714.527344 57.983 162.3486
12806.662109 57.866 -175.2622
12899.464844 57.855 -152.6099
12992.939453 57.653 -147.1245
13087.091797 57.348 -152.4854
13181.925781 57.154 -158.5029
13277.447266 57.223 -161.7083
13373.661133 57.193 -157.8916
13470.572266 57.386 -134.7329
13568.185547 57.677 -135.5813
13666.505859 57.551 -140.2529
13765.539062 56.935 -143.3896
13865.290039 56.185 -147.3901
13965.763672 55.762 -127.9438
14066.965820 55.922 -103.4263
14168.900391 56.317 -104.9229
14271.574219 56.528 -116.8118
14374.992188 56.568 -133.3140
14479.159180 56.519 -141.0981
14584.081055 56.593 -106.5991
14689.763672 56.683 -88.6729
14796.211914 56.473 -95.2417
14903.431641 55.946 -108.4441
15011.427734 55.321 -119.2378
15120.207031 55.199 -119.2441
15229.774414 55.558 -119.7231
15340.135742 55.741 -108.5039
15451.296875 55.692 -87.7124
15563.263672 55.474 -68.7666
15676.041016 55.080 -58.6835
15789.635742 54.772 -72.4319
15904.053711 54.819 -99.0049
16019.300781 54.957 -108.0044
16135.382812 55.109 -16.1475
16252.306641 55.323 -34.0397
16370.077148 55.459 -61.1698
16488.701172 55.440 -89.6465
16608.185547 55.508 -126.7422
16728.535156 55.669 -176.3594
16849.757812 55.658 -53.3260
16971.857422 55.335 -73.5190
17094.841797 54.828 -101.0132
17218.718750 54.302 -131.9272
17343.492188 53.975 -152.0999
17469.169922 54.128 -134.0596
17595.757812 54.682 -108.5693
17723.263672 55.269 -118.2537
17851.693359 55.464 -139.9448
17981.054688 55.392 -151.0137
18111.353516 55.158 -117.4751
18242.595703 54.936 -97.6921
18374.789062 54.764 -114.4519
18507.939453 54.402 -128.2664
18642.054688 54.352 -114.6440
18777.142578 54.609 -90.5325
18913.208984 54.944 -91.4810
19050.261719 55.462 -90.2456
19188.308594 56.051 -76.3667
19327.355469 56.434 -72.7910
19467.410156 56.985 -76.0825
19608.478516 57.869 -73.7493
19750.570312 58.744 -67.1781
19893.691406 59.839 -63.2478
20037.849609 0.000 -52.5917
