* Measurement data measured by REW V5.30.2
* Source: EXCL: Microphone (Umik-1  Gain: 18dB), MICROPHONE (Master Volume), L, volume: 0.540
* Format: 256k Log Swept Sine, 1 sweep at -20.0 dBFS with no timing reference
* Dated: Jan 17, 2024 5:40:59 PM
* REW Settings:
*  C-weighting compensation: Off
*  Target level: 75.0 dB
* Note: ; 
* Measurement: Bad Fan 3
* Smoothing: 1/48 octave
* Frequency Step: 96 ppo
* Start Frequency: 20.141602 Hz
*
* Freq(Hz) SPL(dB) Phase(degrees)
20.141602 66.966 174.6864
20.287556 67.528 171.3134
20.434568 68.179 169.1824
20.582645 68.748 167.8833
20.731796 69.163 167.2454
20.882027 69.457 166.9113
21.033346 69.642 166.7893
21.185762 69.725 166.8351
21.339283 69.721 166.9103
21.493916 69.634 167.0514
21.649670 69.488 167.2070
21.806553 69.292 167.3949
21.964573 69.074 167.5466
22.123737 68.861 167.6221
22.284056 68.663 167.5923
22.445536 68.498 167.3221
22.608185 68.364 166.8328
22.772013 68.237 166.2282
22.937029 68.106 165.4199
23.103241 67.919 164.9563
23.270657 67.650 164.8279
23.439285 67.273 165.7036
23.609137 66.753 168.2167
23.780218 66.182 172.9268
23.952539 65.668 -178.9255
24.126110 65.391 -167.2788
24.300938 65.667 -153.4866
24.477032 66.413 -140.0153
24.654402 67.407 -129.5790
24.833057 68.502 -121.8836
25.013008 69.410 -116.4272
25.194263 70.089 -112.2775
25.376831 70.491 -108.5384
25.560722 70.616 -104.7766
25.745945 70.495 -100.1743
25.932510 70.166 -94.2538
26.120428 69.757 -86.4251
26.309708 69.368 -76.2445
26.500359 69.226 -64.6370
26.692390 69.355 -52.6792
26.885815 69.732 -42.7989
27.080641 70.218 -35.3963
27.276878 70.608 -30.9513
27.474539 70.813 -28.6856
27.673630 70.736 -28.5070
27.874165 70.336 -29.6871
28.076153 69.579 -32.4419
28.279604 68.427 -35.9395
28.484529 66.851 -40.5966
28.690941 64.793 -44.9258
28.898848 62.295 -48.2764
29.108261 59.505 -45.7995
29.319191 57.530 -33.5714
29.531651 57.922 -17.5190
29.745649 59.738 -13.9589
29.961199 61.971 -19.2546
30.178310 63.716 -28.6219
30.396996 64.886 -39.4722
30.617264 65.472 -51.9232
30.839128 65.475 -64.8775
31.062601 64.902 -81.0516
31.287693 63.837 -100.3015
31.514416 62.640 -128.9448
31.742783 61.898 -173.7358
31.972803 62.033 140.0174
32.204491 62.852 105.5260
32.437859 63.542 80.5018
32.672916 63.849 58.9785
32.909679 63.665 35.6039
33.148155 63.101 10.9512
33.388359 62.361 -18.3138
33.630306 61.675 -54.5801
33.874004 61.305 -92.0277
34.119469 61.235 -127.8771
34.366711 61.341 -160.7885
34.615746 61.375 171.9195
34.866585 61.177 147.9885
35.119244 60.604 126.5474
35.373734 59.491 110.3185
35.630066 57.769 99.6121
35.888256 55.835 99.8820
36.148315 55.179 119.3042
36.410259 56.570 135.4272
36.674103 58.859 136.2795
36.939857 60.618 127.4244
37.207539 61.688 114.6520
37.477161 62.133 100.2420
37.748737 62.015 84.2823
38.022282 61.381 67.4192
38.297806 60.252 50.9407
38.575329 58.636 35.1111
38.854862 56.588 21.6095
39.136421 54.335 14.8640
39.420021 52.958 16.2202
39.705673 53.325 18.0402
39.993397 54.886 12.4127
40.283207 56.459 -1.8586
40.575115 57.655 -23.2937
40.869141 58.594 -49.7454
41.165295 59.394 -78.6816
41.463596 60.040 -106.4745
41.764057 60.367 -130.8028
42.066696 60.104 -151.1681
42.371529 58.987 -167.4175
42.678570 56.954 -178.4874
42.987835 55.265 -162.1144
43.299343 55.635 -63.3052
43.613110 57.648 -66.6417
43.929150 58.953 -79.9916
44.247478 59.141 -96.7495
44.568115 58.318 -117.2981
44.891075 56.710 -144.5581
45.216373 54.678 177.1697
45.544029 52.685 130.4308
45.874062 51.569 78.1508
46.206486 52.433 -69.5309
46.541317 54.933 -113.5025
46.878574 57.330 -138.4093
47.218277 58.987 -160.2786
47.560440 59.904 178.4534
47.905083 60.190 157.0078
48.252224 59.935 135.2025
48.601879 59.190 112.8933
48.954067 57.972 89.2228
49.308807 56.361 61.4021
49.666119 54.683 22.7693
50.026020 53.541 -30.5068
50.388531 53.153 -77.9937
50.753666 52.999 -112.9240
51.121449 52.508 -144.2740
51.491894 51.498 -177.6517
51.865025 49.986 146.7560
52.240860 47.953 113.7391
52.619419 45.678 85.9141
53.000721 44.545 -109.4325
53.384785 45.074 -125.4760
53.771633 46.586 -122.2211
54.161285 49.572 -49.4539
54.553761 53.100 -35.8585
54.949081 55.799 -46.0945
55.347263 57.261 -61.4240
55.748333 57.480 -79.3219
56.152309 56.514 -99.0062
56.559212 54.586 -118.8950
56.969063 52.896 -115.5499
57.381886 53.304 -2.5637
57.797699 54.852 -19.9264
58.216526 55.675 -38.0914
58.638386 55.242 -52.1353
59.063305 53.807 -55.0361
59.491302 52.950 -30.7820
59.922401 54.117 -13.3518
60.356625 55.856 -26.4668
60.793995 57.075 -56.5404
61.234531 57.855 -96.9805
61.678261 58.265 -136.1796
62.125206 58.076 -167.9647
62.575390 57.011 164.8357
63.028835 55.061 135.4139
63.485569 52.888 63.6208
63.945610 51.628 -25.2340
64.408989 50.942 -48.9369
64.875725 49.968 -55.0575
65.345840 49.933 12.4047
65.819366 51.733 51.1256
66.296318 53.466 41.2500
66.776726 54.199 19.3136
67.260620 54.178 -16.2195
67.748016 53.762 -56.7288
68.238945 52.790 -84.6394
68.733429 50.864 -97.5958
69.231499 48.460 -65.6572
69.733177 47.166 30.9692
70.238495 46.990 43.8405
70.747475 47.829 93.2196
71.260139 50.200 -175.6677
71.776520 52.566 -160.8693
72.296638 53.748 -155.4089
72.820526 53.550 -150.1282
73.348213 52.805 -123.4814
73.879723 53.365 -47.7621
74.415085 54.847 -37.3810
74.954330 55.712 -45.6093
75.497482 55.732 -60.4558
76.044571 55.183 -78.6613
76.595619 54.149 -95.9913
77.150665 52.483 -109.2849
77.709732 50.700 -103.7163
78.272850 50.785 9.4634
78.840050 52.578 11.3378
79.411354 54.414 6.6880
79.986801 56.013 2.4121
80.566422 57.192 -3.7324
81.150238 57.538 -10.8811
81.738289 56.946 -11.4877
82.330597 56.242 10.5581
82.927200 56.541 39.1659
83.528122 56.820 44.6687
84.133400 55.748 42.4249
84.743065 53.424 43.7350
85.357147 52.105 26.2111
85.975677 53.837 -32.9131
86.598694 55.816 -50.5582
87.226227 56.141 -63.0922
87.858307 54.551 -74.9110
88.494965 51.863 -92.2936
89.136238 50.680 -130.3843
89.782158 51.623 -153.3956
90.432755 52.122 179.7460
91.088066 51.945 98.0464
91.748131 51.865 54.6824
92.412979 51.972 60.6252
93.082642 52.173 75.5404
93.757156 51.888 73.0658
94.436562 51.349 42.4091
95.120888 51.697 4.3187
95.810173 52.302 -8.2205
96.504456 51.917 -9.2555
97.203766 50.781 -5.2583
97.908142 50.690 -18.6173
98.617622 52.023 -55.1283
99.332245 53.283 -73.4124
100.052048 54.554 -36.5007
100.777069 56.313 19.6774
101.507339 57.268 18.0674
102.242905 56.600 17.0223
102.983795 54.989 43.1743
103.730057 53.782 68.2802
104.481728 52.668 53.7214
105.238846 50.862 8.8904
106.001450 48.834 -33.8995
106.769577 48.267 65.4906
107.543274 49.830 80.7959
108.322578 52.228 108.7389
109.107529 54.390 125.3612
109.898170 55.328 118.7919
110.694534 54.700 97.9730
111.496674 52.882 69.1470
112.304626 51.247 73.0746
113.118431 51.376 79.1204
113.938133 52.174 35.2094
114.763779 52.614 -9.9774
115.595406 53.029 118.5776
116.433060 53.592 117.3800
117.276779 54.056 145.9568
118.126617 54.637 -166.2628
118.982613 54.581 -154.3496
119.844810 53.822 -151.3442
120.713257 53.961 34.1681
121.587997 54.940 17.9304
122.469070 55.200 -19.3505
123.356529 54.604 -76.7340
124.250420 53.655 -110.8949
125.150787 53.455 137.9369
126.057678 54.197 72.5193
126.971146 54.134 48.0354
127.891228 52.564 16.9017
128.817978 50.156 60.3910
129.751450 48.386 95.3059
130.691681 48.389 74.0565
131.638733 49.891 -34.0415
132.592636 51.352 -71.9824
133.553452 52.044 99.4443
134.521240 52.181 66.0543
135.496033 51.733 45.3162
136.477890 51.232 37.4144
137.466858 50.564 39.8142
138.462997 49.102 70.2935
139.466354 47.966 130.5200
140.476990 48.752 75.5153
141.494949 50.054 47.2351
142.520279 49.950 45.5145
143.553040 48.902 70.7521
144.593277 48.701 -34.2280
145.641052 49.828 58.7766
146.696426 51.035 98.7189
147.759445 51.300 125.0057
148.830170 50.386 148.4753
149.908661 48.723 162.6260
150.994965 48.378 127.3407
152.089142 49.899 112.3572
153.191238 51.674 -169.6763
154.301331 53.029 -97.2665
155.419464 53.283 -72.2068
156.545700 52.443 -33.7281
157.680099 51.160 -12.3885
158.822708 50.562 -28.9315
159.973602 51.031 -37.7468
161.132843 51.679 -33.5834
162.300476 51.742 -27.5658
163.476578 51.736 6.6147
164.661194 52.236 71.5170
165.854401 52.487 101.8826
167.056244 51.480 106.6656
168.266800 49.130 102.2639
169.486130 46.710 -70.1165
170.714294 46.795 48.1937
171.951355 48.550 49.7024
173.197388 49.646 27.5845
174.452454 50.605 13.0956
175.716614 52.178 11.3287
176.989929 53.545 -7.3278
178.272476 54.530 -26.7566
179.564316 55.433 -44.6791
180.865509 55.557 -89.9374
182.176132 54.151 -124.2732
183.496262 51.457 -108.5699
184.825958 48.702 -39.7457
186.165283 46.742 -12.0071
187.514313 44.873 8.7756
188.873123 43.233 54.3075
190.241776 43.049 163.1847
191.620346 44.244 -162.7002
193.008911 46.015 -126.8730
194.407532 47.696 -85.3646
195.816284 48.716 -73.0449
197.235245 49.288 -55.3248
198.664490 50.053 -45.5922
200.104095 50.632 -46.5294
201.554138 50.445 -49.3186
203.014679 49.564 -55.8378
204.485809 47.932 -69.2241
205.967590 45.439 -117.9478
207.460114 44.023 -153.9867
208.963455 45.943 -73.9346
210.477692 48.322 -79.0721
212.002899 49.083 -90.3375
213.539154 48.429 -75.2906
215.086548 47.888 39.4152
216.645157 48.023 -33.3932
218.215057 48.386 -105.8473
219.796341 49.204 154.0127
221.389069 50.965 150.9574
222.993347 53.302 51.5309
224.609253 55.152 57.4143
226.236862 55.513 70.2323
227.876266 54.281 70.7939
229.527557 52.576 -66.6106
231.190811 51.212 -113.3340
232.866119 50.680 -119.0015
234.553558 51.351 -118.2993
236.253235 51.959 -147.9585
237.965225 52.303 166.5022
239.689621 52.451 -173.2041
241.426514 52.229 -131.0168
243.175995 51.668 -91.2532
244.938141 51.219 -65.5535
246.713058 51.538 -68.7013
248.500839 52.106 -73.6714
250.301575 51.871 -64.1377
252.115356 51.222 -51.1486
253.942291 50.495 -37.0542
255.782455 49.362 -26.7844
257.635956 48.072 -45.5896
259.502899 48.068 -98.3297
261.383362 49.240 -114.3582
263.277466 50.220 -137.3074
265.185272 50.696 -168.1207
267.106903 51.533 -169.0787
269.042480 52.827 -141.5378
270.992065 53.603 -129.6183
272.955780 52.958 -134.0747
274.933716 51.278 -130.3875
276.925995 50.016 -103.6890
278.932709 49.751 18.0779
280.953979 49.635 102.8063
282.989899 49.324 137.1288
285.040558 48.845 152.9479
287.106079 48.291 -130.4341
289.186554 48.041 -98.7137
291.282104 49.037 -94.7491
293.392853 51.494 -81.2181
295.518890 53.604 -85.5565
297.660339 54.346 -119.3662
299.817322 54.303 -158.8951
301.989929 53.829 -166.5931
304.178284 52.769 -157.3149
306.382477 52.143 -132.9384
308.602661 52.861 -151.8445
310.838928 53.470 -163.7151
313.091400 53.147 -175.3804
315.360199 52.112 176.5145
317.645416 50.714 174.7151
319.947205 49.715 142.0916
322.265686 50.431 118.8844
324.600952 52.316 162.7943
326.953156 53.318 -179.0681
329.322388 52.682 -177.6976
331.708801 51.451 158.9543
334.112488 51.061 149.0950
336.533600 51.024 166.1229
338.972260 50.603 -163.1663
341.428589 50.044 -157.2671
343.902710 49.693 -179.5729
346.394775 49.876 140.9170
348.904907 51.440 96.3442
351.433228 53.577 94.4719
353.979858 54.955 -129.8439
356.544952 55.251 -147.7866
359.128632 54.738 -178.0869
361.731018 53.513 -179.0391
364.352264 51.849 -165.4150
366.992523 50.700 -98.1740
369.651917 50.833 -68.2810
372.330566 51.291 -127.3530
375.028625 51.291 -147.8505
377.746246 51.181 -144.1252
380.483551 51.789 -140.2693
383.240692 52.671 177.9263
386.017822 52.939 159.2708
388.815063 52.536 -179.5240
391.632568 52.567 -150.5159
394.470490 53.710 -161.2721
397.328979 55.074 -174.0736
400.208191 56.090 -148.1598
403.108276 56.573 -136.6172
406.029358 56.563 -134.4713
408.971619 56.243 -139.5798
411.935181 55.347 -152.0814
414.920227 54.225 -167.5599
417.926910 53.107 -174.7943
420.955383 51.924 -172.9294
424.005798 51.799 173.6234
427.078308 52.811 149.2594
430.173096 53.696 -169.2529
433.290314 53.903 -116.5057
436.430115 53.508 -68.5911
439.592682 53.482 -35.1841
442.778137 54.521 -100.3756
445.986694 55.895 -169.4982
449.218506 56.552 -169.4121
452.473724 56.235 -166.3523
455.752533 55.100 -156.7238
459.055115 54.391 -118.2075
462.381622 54.928 -124.0995
465.732239 55.344 -126.6173
469.107117 54.651 -128.6776
472.506470 53.338 -149.4286
475.930450 52.375 -174.2665
479.379242 52.258 -165.8798
482.853027 52.530 -170.4119
486.351990 52.771 -179.4208
489.876282 52.660 -173.5215
493.426117 52.922 -169.4766
497.001678 54.442 -160.1969
500.603149 56.272 -148.0754
504.230713 57.647 -140.8735
507.884583 57.999 -147.4703
511.564911 57.372 -150.8511
515.271912 56.582 -122.5540
519.005798 56.324 -113.1232
522.766724 56.705 -110.4153
526.554932 57.394 -98.6305
530.370544 58.035 -102.2936
534.213806 59.093 -127.3221
538.084961 60.354 -143.6066
541.984131 61.110 -146.8436
545.911560 61.010 -157.5050
549.867432 60.041 -165.5884
553.851990 59.039 -169.5638
557.865417 59.109 -172.7759
561.907959 59.817 -174.6500
565.979797 60.401 -176.4785
570.081116 60.851 -176.6702
574.212158 61.422 -173.3616
578.373108 61.934 -173.3049
582.564209 62.249 -177.0094
586.785706 62.540 179.9390
591.037781 62.386 176.1930
595.320679 61.579 167.4939
599.634644 60.911 163.0826
603.979858 60.933 161.4438
608.356567 61.947 172.0862
612.764954 63.485 -175.0995
617.205322 64.383 -177.3536
621.677856 64.601 168.8715
626.182800 64.736 158.5220
630.720398 64.967 157.1466
635.290833 65.312 159.5425
639.894409 65.472 156.9904
644.531372 65.273 147.9146
649.201904 64.721 131.9554
653.906311 64.048 119.4984
658.644775 63.816 114.0507
663.417603 64.215 111.9281
668.224976 64.628 109.4288
673.067200 64.501 107.5253
677.944519 63.950 99.1570
682.857178 62.841 90.2159
687.805420 61.267 102.6201
692.789551 60.284 126.4861
697.809814 60.306 141.1737
702.866455 61.253 145.2911
707.959717 62.559 133.5145
713.089905 63.647 125.7531
718.257263 64.272 122.2124
723.462036 64.305 108.3561
728.704529 63.772 98.4142
733.985046 63.180 97.2576
739.303833 62.766 100.1790
744.661133 62.027 99.2073
750.057251 60.881 99.3706
755.492493 59.916 99.1672
760.967102 59.422 102.2449
766.481384 59.878 106.7346
772.035645 60.762 104.4923
777.630127 61.339 105.1067
783.265137 61.342 98.3632
788.940979 60.548 98.5873
794.657959 59.547 106.5723
800.416382 59.413 102.9854
806.216553 60.109 114.4291
812.058716 60.636 117.6177
817.943237 60.529 113.0656
823.870361 60.067 110.7628
829.840454 60.095 111.1528
835.853821 60.498 110.3325
841.910767 60.480 105.7125
848.011597 60.407 101.0732
854.156616 60.960 102.4664
860.346191 62.064 110.8221
866.580627 63.069 111.7396
872.860229 63.059 96.3389
879.185364 61.984 83.7589
885.556274 61.016 95.3376
891.973389 60.701 97.4159
898.437012 60.251 93.8204
904.947449 60.297 103.7898
911.505066 61.323 107.1484
918.110229 62.088 102.3529
924.763245 62.132 97.4474
931.464478 61.721 88.7900
938.214233 61.188 81.3750
945.012939 60.812 81.9121
951.860901 60.898 96.7789
958.758484 61.514 103.9633
965.706055 62.005 97.2188
972.703979 62.039 84.4990
979.752563 61.901 70.7509
986.852234 61.603 63.0157
994.003357 60.553 63.3657
1001.206299 58.813 72.0601
1008.461426 57.610 91.1854
1015.769165 57.707 91.3763
1023.129822 58.088 86.8091
1030.543823 57.986 86.1920
1038.011597 57.351 83.0778
1045.533447 56.611 84.8085
1053.109863 56.119 87.2599
1060.741089 56.022 102.4081
1068.427612 56.396 115.8907
1076.169922 56.828 111.1425
1083.968262 57.635 123.1349
1091.823120 59.217 138.3752
1099.734863 61.164 138.9282
1107.703979 62.736 128.2487
1115.730835 63.371 118.2495
1123.815918 63.164 109.5676
1131.959595 62.577 101.1201
1140.162231 62.159 98.8955
1148.424316 62.739 117.0038
1156.746216 63.989 120.2537
1165.128418 64.879 114.9435
1173.571411 65.470 105.8743
1182.075562 65.669 87.5959
1190.641357 65.128 76.7125
1199.269287 64.022 80.5997
1207.959717 63.232 85.8721
1216.713135 63.215 89.1996
1225.529907 63.403 95.0220
1234.410645 63.755 93.1636
1243.355713 64.275 81.5576
1252.365601 64.165 69.0873
1261.440796 63.230 65.6759
1270.581665 62.735 86.0676
1279.788818 63.270 100.1885
1289.062744 63.946 98.2731
1298.403809 64.493 86.6002
1307.812622 64.810 73.1375
1317.289551 64.626 67.2776
1326.835205 63.981 71.7052
1336.449951 63.452 70.5793
1346.134399 63.001 72.1168
1355.889038 62.823 82.0179
1365.714355 63.514 88.1611
1375.610840 64.820 83.1908
1385.579102 65.920 75.6025
1395.619629 66.092 67.2560
1405.732910 65.161 62.8624
1415.919434 63.710 58.5721
1426.179810 62.201 60.0958
1436.514526 61.169 80.9204
1446.924072 61.476 93.9244
1457.409058 62.842 89.4813
1467.970093 64.647 94.1228
1478.607666 66.065 99.7349
1489.322266 66.738 93.2100
1500.114502 66.369 82.4183
1510.984985 65.071 76.3087
1521.934204 63.907 71.6053
1532.962769 63.700 63.1879
1544.071289 64.986 73.8365
1555.260254 67.050 79.5422
1566.530273 68.635 75.5435
1577.881958 68.811 78.7639
1589.315918 67.688 89.7438
1600.832764 66.676 90.5601
1612.433105 66.617 85.7637
1624.117432 66.867 77.2648
1635.886475 67.307 71.5961
1647.740723 68.138 76.7974
1659.680908 68.771 85.2224
1671.707642 68.594 78.7308
1683.821533 67.934 65.7554
1696.023193 67.827 65.3613
1708.313232 68.323 65.0837
1720.692383 68.579 51.3462
1733.161255 68.451 36.4237
1745.720459 68.105 38.2427
1758.370728 67.530 47.4785
1771.112549 66.878 50.5687
1783.946777 66.724 56.7905
1796.874023 67.188 56.8606
1809.894897 67.783 54.3375
1823.010132 68.040 46.9324
1836.220459 67.784 41.6432
1849.526489 67.343 40.9681
1862.928955 67.070 37.2042
1876.428467 66.633 31.7170
1890.025879 66.074 30.9957
1903.721802 65.900 47.3397
1917.516968 66.131 51.5673
1931.412109 66.624 43.1089
1945.407959 67.037 37.7502
1959.505127 67.115 31.5742
1973.704468 67.129 27.0648
1988.006714 66.405 32.2594
2002.412598 65.313 39.4888
2016.922852 65.359 30.8846
2031.538330 65.652 20.4712
2046.259644 65.005 13.6252
2061.087646 63.601 15.5797
2076.023193 62.460 22.0364
2091.066895 63.084 67.2892
2106.219727 64.426 71.4896
2121.482178 64.649 42.3429
2136.855225 63.617 19.3263
2152.339844 61.981 19.4672
2167.936523 61.711 38.6300
2183.646240 63.055 49.3422
2199.469727 63.632 42.2906
2215.407959 62.729 37.0474
2231.461670 61.728 54.4197
2247.631836 61.850 60.6494
2263.919189 62.508 55.1412
2280.324463 63.314 50.1788
2296.848633 64.218 50.2705
2313.492432 64.581 51.1627
2330.256836 64.328 56.4485
2347.142822 64.641 63.0255
2364.151123 65.275 59.8674
2381.282715 65.127 51.6287
2398.538574 64.435 43.2639
2415.919434 64.382 50.0062
2433.426270 65.181 56.8694
2451.059814 65.631 45.0314
2468.821289 65.591 30.9624
2486.711426 65.785 27.2786
2504.731201 66.201 36.9323
2522.881592 66.387 52.8134
2541.163330 66.664 53.4988
2559.577637 66.904 39.6383
2578.125488 66.743 34.1986
2596.807617 67.112 40.4811
2615.625244 67.946 52.5428
2634.579102 67.838 53.6672
2653.670410 67.254 51.7360
2672.899902 67.645 51.2412
2692.268799 68.178 48.2407
2711.778076 68.073 62.5049
2731.428711 67.771 69.4655
2751.221680 67.790 55.3053
2771.158203 68.299 50.2462
2791.239258 68.517 45.2136
2811.465820 68.279 43.2710
2831.838867 68.175 41.6101
2852.359619 68.273 39.2986
2873.029053 68.311 29.3256
2893.848145 68.026 15.8182
2914.818115 67.391 17.7112
2935.940186 67.288 29.6348
2957.215332 67.906 33.7441
2978.644531 67.919 30.7219
3000.229004 66.825 24.6809
3021.969971 65.442 19.7590
3043.868408 64.705 20.9913
3065.925537 65.003 28.6294
3088.142578 65.590 36.4550
3110.520508 65.323 33.9519
3133.060547 64.770 44.4257
3155.763916 65.259 64.7748
3178.631836 66.061 59.8099
3201.665527 66.743 55.8092
3224.866211 67.205 53.3085
3248.234863 67.249 44.7853
3271.772949 67.558 39.2593
3295.481445 68.241 38.7324
3319.361816 68.526 33.1276
3343.415283 68.240 28.6368
3367.643066 67.677 28.2479
3392.046387 67.497 28.7263
3416.626465 67.229 20.9153
3441.384766 66.615 13.0940
3466.322510 66.568 17.8108
3491.440918 67.183 23.5676
3516.741455 67.387 17.9409
3542.225098 67.281 17.9398
3567.893555 67.552 24.0931
3593.748047 68.204 26.4523
3619.789795 68.795 15.2096
3646.020264 69.258 6.2671
3672.440918 69.478 10.7803
3699.052979 69.581 11.2900
3725.857910 69.677 5.3735
3752.856934 69.694 -0.4017
3780.051758 69.739 -0.4491
3807.443604 70.025 -3.4181
3835.033936 70.065 -6.9053
3862.824219 70.109 -1.3837
3890.815918 70.675 -4.8694
3919.010254 72.250 -11.8297
3947.408936 73.732 -15.0206
3976.013428 73.445 -14.5682
4004.825195 71.939 -4.3749
4033.845703 70.721 4.2070
4063.076660 70.363 -8.2238
4092.519287 70.264 -19.7827
4122.175293 70.609 -3.4598
4152.046387 71.307 -3.4352
4182.133789 71.476 -7.3558
4212.439453 71.333 -4.0300
4242.964355 71.587 -9.1947
4273.710449 71.656 -32.4066
4304.679688 71.008 -35.6735
4335.873047 69.990 -23.4308
4367.292480 68.809 -27.4131
4398.939453 67.423 -32.8923
4430.815918 66.241 -7.3662
4462.923340 65.614 9.6655
4495.263672 65.477 12.6755
4527.838379 65.460 13.0531
4560.648926 65.582 15.6205
4593.697266 66.000 8.2808
4626.984863 66.318 4.5693
4660.513672 66.808 4.9031
4694.285645 67.333 -1.4161
4728.302246 67.352 -12.7390
4762.565430 67.602 -10.5985
4797.077148 67.745 -22.1991
4831.838867 67.108 -31.0653
4866.852539 66.407 -26.0769
4902.119629 65.687 -32.8724
4937.642578 64.784 -35.3118
4973.422852 64.544 -16.6786
5009.462402 64.734 -28.3406
5045.763184 64.610 -39.2008
5082.326660 64.283 -37.5115
5119.155273 63.865 -48.7910
5156.250977 63.573 -49.0098
5193.615234 64.013 -35.7330
5231.250488 64.615 -33.2374
5269.158203 64.888 -8.6787
5307.340820 64.758 -15.7458
5345.799805 64.462 -38.5988
5384.537598 64.325 -46.9821
5423.556152 64.493 -44.9771
5462.857422 64.694 -77.3508
5502.443359 65.253 109.7283
5542.316406 66.465 159.7952
5582.478516 67.489 119.3071
5622.931641 67.928 66.3047
5663.677734 68.429 69.1550
5704.719238 68.701 57.9824
5746.058105 68.183 39.0168
5787.696289 66.970 36.5743
5829.636230 65.772 25.9310
5871.880371 65.145 4.3328
5914.430664 64.852 -2.5822
5957.289062 64.499 -12.4910
6000.458008 64.029 -22.8762
6043.939941 64.019 -31.3656
6087.736816 64.223 -38.2388
6131.851074 64.281 24.9246
6176.285156 64.351 32.7949
6221.041016 64.635 40.7744
6266.121094 64.862 31.5992
6311.527832 64.804 30.4800
6357.263672 64.835 33.9430
6403.331055 64.707 40.5256
6449.732422 64.479 47.0311
6496.469727 64.039 41.2808
6543.545898 63.655 39.9236
6590.962891 63.517 39.7892
6638.723633 63.433 37.1688
6686.830566 63.735 28.7531
6735.286133 64.492 64.8517
6784.092773 65.634 81.8323
6833.252930 66.964 87.0989
6882.769531 68.087 84.7925
6932.645020 68.650 80.7545
6982.881836 68.897 72.8899
7033.482910 68.830 67.2922
7084.450195 68.562 60.4670
7135.787109 68.134 51.1635
7187.496094 67.839 38.9086
7239.579590 67.482 27.9410
7292.040527 66.841 22.9987
7344.881836 66.031 20.7670
7398.105957 65.381 24.0443
7451.715820 65.218 27.4152
7505.713867 65.444 30.5201
7560.103516 65.707 24.7520
7614.887207 65.855 17.7128
7670.067871 65.972 14.4846
7725.648438 66.080 13.5259
7781.631836 65.962 8.5004
7838.020508 65.600 7.7003
7894.817871 65.036 5.4928
7952.026855 64.657 5.5693
8009.650391 64.658 8.6725
8067.691406 64.891 10.7950
8126.153320 65.009 13.6316
8185.038574 65.141 13.4277
8244.350586 65.410 11.9491
8304.092773 65.607 9.4009
8364.267578 65.685 6.7543
8424.878906 65.585 1.9388
8485.928711 65.336 2.2885
8547.420898 65.022 12.6783
8609.359375 64.855 24.5680
8671.746094 64.967 31.9348
8734.584961 65.275 32.5583
8797.878906 65.642 27.1396
8861.631836 66.034 19.3208
8925.846680 66.616 9.4108
8990.527344 67.070 0.4449
9055.676758 66.961 -4.7804
9121.297852 66.754 -3.9484
9187.394531 66.780 -1.0448
9253.969727 66.600 -0.8906
9321.027344 66.191 -3.0638
9388.571289 65.912 -8.2723
9456.604492 65.648 -15.6016
9525.130859 65.173 -21.0587
9594.154297 64.496 -27.1055
9663.677734 63.671 -33.2843
9733.705078 62.937 -25.4856
9804.239258 62.914 -1.0463
9875.285156 63.483 9.0251
9946.845703 63.864 11.5009
10018.924805 64.414 8.8142
10091.526367 64.924 0.3292
10164.653320 64.978 -7.9932
10238.310547 64.913 -14.2183
10312.501953 65.005 -17.4246
10387.230469 65.065 -19.4419
10462.500977 64.923 -19.6499
10538.316406 64.899 -14.0548
10614.681641 64.863 -12.7145
10691.599609 64.495 -21.2360
10769.075195 63.914 -35.9402
10847.112305 63.228 -48.7161
10925.714844 62.508 -55.7301
11004.886719 61.958 -45.5800
11084.632812 61.847 -20.9156
11164.957031 62.082 -8.2524
11245.863281 62.168 -17.5762
11327.355469 61.792 -33.1517
11409.438477 60.875 -43.1107
11492.116211 59.723 -32.4523
11575.392578 59.123 -18.6698
11659.272461 59.257 -19.3264
11743.760742 59.654 -27.9156
11828.861328 59.740 -42.8091
11914.578125 59.270 -52.9128
12000.916016 58.458 -49.1484
12087.879883 58.008 -40.2075
12175.473633 58.360 -37.7291
12263.702148 59.126 -39.7102
12352.570312 59.741 -43.0476
12442.082031 60.312 -49.8712
12532.242188 60.699 -57.1028
12623.055664 60.243 -60.4540
12714.527344 59.083 -44.5360
12806.662109 57.697 -25.6974
12899.464844 56.670 -34.9414
12992.939453 55.967 -49.8923
13087.091797 55.260 -64.3140
13181.925781 54.933 -63.9756
13277.447266 55.259 -49.8813
13373.661133 55.643 -31.9333
13470.572266 56.123 -27.2460
13568.185547 56.636 -42.5062
13666.505859 56.477 -57.6499
13765.539062 55.450 -60.4683
13865.290039 54.415 -49.4742
13965.763672 54.159 -25.1407
14066.965820 54.435 3.0822
14168.900391 54.925 -3.6875
14271.574219 55.168 -22.3383
14374.992188 55.032 -30.0735
14479.159180 54.861 -5.7679
14584.081055 55.001 0.9735
14689.763672 55.189 -11.6414
14796.211914 55.019 -28.5315
14903.431641 54.607 -46.7971
15011.427734 54.399 -50.5330
15120.207031 54.722 -32.6726
15229.774414 55.165 -17.5139
15340.135742 55.184 -20.6506
15451.296875 54.753 -39.6654
15563.263672 53.952 -57.6431
15676.041016 53.119 -49.2786
15789.635742 52.987 -25.2239
15904.053711 53.504 -29.8098
16019.300781 53.801 -48.3705
16135.382812 53.673 -64.5336
16252.306641 53.684 -44.0493
16370.077148 54.015 -14.8016
16488.701172 54.298 -23.5593
16608.185547 54.281 -44.3202
16728.535156 53.829 -59.2906
16849.757812 53.561 -23.1538
16971.857422 53.971 -7.1951
17094.841797 54.436 -24.8677
17218.718750 54.518 -43.7499
17343.492188 54.497 -46.4788
17469.169922 54.733 -23.1024
17595.757812 55.039 -31.9874
17723.263672 54.930 -47.1445
17851.693359 54.252 -62.5551
17981.054688 53.371 -70.3411
18111.353516 52.693 -39.4546
18242.595703 52.419 -39.2749
18374.789062 52.247 -64.3955
18507.939453 51.957 -38.3662
18642.054688 51.850 -10.4967
18777.142578 52.227 -23.9406
18913.208984 53.230 -32.4869
19050.261719 54.974 -30.6448
19188.308594 56.090 -29.8732
19327.355469 55.732 -35.7002
19467.410156 55.291 -38.5555
19608.478516 55.888 -31.9568
19750.570312 56.737 -28.1565
19893.691406 56.911 -38.0756
20037.849609 0.000 -61.3553
