* Measurement data measured by REW V5.30.2
* Source: EXCL: Microphone (Umik-1  Gain: 18dB), MICROPHONE (Master Volume), L, volume: 0.540
* Format: 256k Log Swept Sine, 1 sweep at -20.0 dBFS with no timing reference
* Dated: Jan 11, 2024 5:49:56 PM
* REW Settings:
*  C-weighting compensation: Off
*  Target level: 75.0 dB
* Note: measured 0.5 m away from mic; 
* Measurement: Fan 6
* Smoothing: 1/48 octave
* Frequency Step: 96 ppo
* Start Frequency: 20.141602 Hz
*
* Freq(Hz) SPL(dB) Phase(degrees)
20.141602 51.934 134.3278
20.287556 52.294 148.1034
20.434568 52.756 161.3857
20.582645 53.345 170.7267
20.731796 54.065 177.2665
20.882027 54.605 -179.2134
21.033346 54.815 -178.5440
21.185762 54.683 -179.8083
21.339283 54.143 177.0945
21.493916 53.210 171.0406
21.649670 52.006 162.3553
21.806553 50.535 147.9851
21.964573 49.333 126.5547
22.123737 48.963 101.3914
22.284056 49.209 78.8042
22.445536 49.711 64.9843
22.608185 50.332 56.5849
22.772013 50.725 52.3477
22.937029 50.829 51.3860
23.103241 50.767 51.7360
23.270657 50.587 53.4120
23.439285 50.292 55.4516
23.609137 49.892 55.5710
23.780218 49.311 53.6822
23.952539 48.426 47.0977
24.126110 47.505 34.1342
24.300938 47.079 10.6588
24.477032 47.346 -23.1742
24.654402 48.530 -51.9835
24.833057 50.222 -71.8534
25.013008 51.589 -85.3489
25.194263 52.545 -96.8131
25.376831 53.009 -106.6304
25.560722 52.979 -117.1446
25.745945 52.477 -127.4927
25.932510 51.517 -140.2145
26.120428 50.145 -154.3166
26.309708 48.452 -173.8538
26.500359 46.729 161.9611
26.692390 45.168 128.3677
26.885815 44.106 93.7303
27.080641 43.504 58.8650
27.276878 43.179 27.7657
27.474539 43.104 -3.1568
27.673630 43.249 -31.6931
27.874165 43.339 -54.6783
28.076153 43.140 -73.4117
28.279604 42.516 -86.4337
28.484529 41.058 -96.5703
28.690941 39.399 -98.9999
28.898848 38.747 -2.6837
29.108261 40.941 42.9602
29.319191 43.911 43.1572
29.531651 45.959 40.6589
29.745649 47.224 39.3108
29.961199 47.758 38.9849
30.178310 47.779 41.1914
30.396996 47.456 45.9563
30.617264 47.044 53.9607
30.839128 46.756 63.0281
31.062601 46.673 71.4149
31.287693 46.585 75.7567
31.514416 46.298 76.1940
31.742783 45.594 71.5477
31.972803 44.435 62.2217
32.204491 42.926 44.7166
32.437859 41.456 17.6077
32.672916 40.296 -15.8066
32.909679 39.528 -48.2025
33.148155 38.778 -77.5912
33.388359 38.790 -125.5820
33.630306 40.250 152.5464
33.874004 42.579 116.8024
34.119469 44.809 97.3132
34.366711 46.267 79.7312
34.615746 47.061 60.7352
34.866585 47.581 36.0629
35.119244 48.309 1.1507
35.373734 49.695 -35.1204
35.630066 51.358 -61.4827
35.888256 52.881 -79.6712
36.148315 53.885 -92.8134
36.410259 54.272 -102.7630
36.674103 53.995 -111.0622
36.939857 53.015 -118.0716
37.207539 51.269 -123.7830
37.477161 48.670 -129.1096
37.748737 45.346 -136.0769
38.022282 41.953 -175.0293
38.297806 41.076 84.3663
38.575329 42.500 80.1853
38.854862 44.366 84.8510
39.136421 45.711 90.4617
39.420021 46.407 94.3413
39.705673 46.346 96.8567
39.993397 45.424 98.9191
40.283207 43.566 102.6416
40.575115 40.859 115.7217
40.869141 38.589 160.3159
41.165295 37.885 -159.6282
41.463596 38.238 -154.1204
41.764057 38.247 -166.1461
42.066696 38.234 159.9265
42.371529 39.198 111.4031
42.678570 40.627 81.9871
42.987835 41.683 65.8826
43.299343 41.862 54.6000
43.613110 41.037 45.3040
43.929150 39.185 37.9980
44.247478 36.459 37.6312
44.568115 34.449 63.5408
44.891075 35.381 93.0938
45.216373 37.937 90.4095
45.544029 40.151 79.1118
45.874062 41.482 67.8662
46.206486 41.861 58.9156
46.541317 41.265 53.4094
46.878574 39.741 53.2737
47.218277 37.561 61.2124
47.560440 35.354 74.3038
47.905083 33.546 78.3440
48.252224 32.245 58.0306
48.601879 32.095 -4.2982
48.954067 32.790 -51.3145
49.308807 33.343 -83.5430
49.666119 33.848 -136.8075
50.026020 34.872 156.1638
50.388531 35.880 125.0621
50.753666 35.934 107.1288
51.121449 34.998 90.3390
51.491894 34.785 -20.2288
51.865025 36.351 -80.9149
52.240860 38.278 -87.6981
52.619419 39.527 -89.5322
53.000721 40.121 -91.2670
53.384785 40.182 -97.6328
53.771633 39.817 -113.8085
54.161285 39.356 -145.9558
54.553761 39.172 169.2861
54.949081 39.084 129.8949
55.347263 38.645 94.4196
55.748333 37.869 49.3274
56.152309 37.170 -8.9158
56.559212 36.601 -54.5668
56.969063 35.777 -85.9453
57.381886 35.010 -107.0288
57.797699 35.967 -112.0625
58.216526 38.771 -109.3403
58.638386 41.548 -113.4639
59.063305 43.313 -122.8040
59.491302 43.810 -134.4058
59.922401 42.978 -147.0508
60.356625 40.871 -159.3599
60.793995 38.177 -157.9165
61.234531 37.130 -59.7002
61.678261 38.420 -68.5469
62.125206 39.821 -87.1504
62.575390 40.345 -101.6909
63.028835 39.832 -110.0073
63.485569 38.311 -112.2358
63.945610 35.945 -110.4902
64.408989 33.373 -115.4006
64.875725 32.862 -152.1494
65.345840 35.310 179.7446
65.819366 38.109 173.2874
66.296318 40.027 168.5730
66.776726 40.862 160.8435
67.260620 40.624 150.4346
67.748016 39.632 143.1855
68.238945 39.292 159.9297
68.733429 41.193 -156.3245
69.231499 43.743 -146.9395
69.733177 45.296 -150.0688
70.238495 45.467 -155.0227
70.747475 44.256 -157.8850
71.260139 41.919 -154.4722
71.776520 39.368 -144.5852
72.296638 37.948 -144.1992
72.820526 37.526 -152.3813
73.348213 37.132 -151.6265
73.879723 37.301 -136.9236
74.415085 39.265 -115.5569
74.954330 42.661 22.6959
75.497482 45.880 24.2961
76.044571 47.804 10.6981
76.595619 48.190 -10.8829
77.150665 47.356 -49.3820
77.709732 45.962 -112.3547
78.272850 44.337 -151.2786
78.840050 42.596 -152.7397
79.411354 41.884 -113.8999
79.986801 42.400 -90.5630
80.566422 42.743 -78.4502
81.150238 42.715 -59.1478
81.738289 42.727 -37.1180
82.330597 42.595 -26.6799
82.927200 41.748 -30.8330
83.528122 39.985 -53.3729
84.133400 37.673 -98.5620
84.743065 35.527 -121.9873
85.357147 34.785 -111.8523
85.975677 35.899 -107.6064
86.598694 37.579 -118.8540
87.226227 39.135 -128.4695
87.858307 40.068 -131.2632
88.494965 39.955 -128.5398
89.136238 39.380 -96.5391
89.782158 39.760 3.0344
90.432755 40.425 17.0432
91.088066 40.001 26.0791
91.748131 38.784 56.4017
92.412979 38.321 140.9037
93.082642 38.686 161.7056
93.757156 38.446 166.4844
94.436562 37.268 165.8914
95.120888 35.823 150.9006
95.810173 35.712 26.2178
96.504456 37.042 -10.6523
97.203766 38.216 -23.3263
97.908142 38.629 -33.3556
98.617622 38.145 -48.5682
99.332245 36.941 -76.4219
100.052048 36.445 -101.2266
100.777069 37.851 -94.9375
101.507339 39.267 -88.8577
102.242905 39.303 -79.8799
102.983795 38.411 -55.7054
103.730057 37.741 -18.9232
104.481728 38.311 22.2598
105.238846 39.516 22.1621
106.001450 39.883 0.6532
106.769577 39.525 -5.4071
107.543274 39.527 107.6572
108.322578 39.716 79.5171
109.107529 39.552 27.6318
109.898170 39.281 -46.5361
110.694534 39.087 -119.7632
111.496674 39.323 -149.7085
112.304626 40.840 -128.2788
113.118431 43.435 -106.4963
113.938133 46.346 -39.9615
114.763779 48.843 -54.5237
115.595406 50.183 -108.6157
116.433060 50.085 -150.5845
117.276779 48.794 -161.8691
118.126617 48.163 -54.6449
118.982613 49.519 -21.4446
119.844810 50.727 -19.5842
120.713257 50.199 -22.9824
121.587997 48.058 5.1536
122.469070 45.277 72.0348
123.356529 42.570 115.1403
124.250420 40.397 147.9177
125.150787 38.488 139.2715
126.057678 37.497 -2.0654
126.971146 38.325 23.4049
127.891228 39.603 46.5480
128.817978 39.869 55.8862
129.751450 39.528 72.6448
130.691681 39.693 75.2767
131.638733 40.163 53.5118
132.592636 40.579 -142.4939
133.553452 40.353 -164.5043
134.521240 39.441 12.6571
135.496033 38.559 -4.7668
136.477890 37.935 -6.0167
137.466858 38.081 80.5104
138.462997 38.610 98.4860
139.466354 38.442 85.5817
140.476990 39.190 103.0576
141.494949 42.253 133.8832
142.520279 45.158 129.5424
143.553040 46.461 126.3706
144.593277 46.289 141.8113
145.641052 45.269 156.4143
146.696426 43.327 142.7395
147.759445 41.114 128.0164
148.830170 40.471 166.7493
149.908661 41.099 -161.8634
150.994965 41.229 -143.4752
152.089142 41.198 -88.5999
153.191238 42.747 14.1669
154.301331 45.452 107.6083
155.419464 47.480 90.6816
156.545700 47.957 61.8137
157.680099 46.876 20.0547
158.822708 45.046 -25.4374
159.973602 44.310 -13.6115
161.132843 45.131 21.3804
162.300476 45.714 16.8888
163.476578 45.984 32.2131
164.661194 46.553 53.4333
165.854401 46.659 48.4882
167.056244 46.738 20.9838
168.266800 47.222 -17.8474
169.486130 46.806 -39.1945
170.714294 45.786 -101.6090
171.951355 45.647 -167.4335
173.197388 45.533 148.2738
174.452454 44.175 128.8313
175.716614 41.741 168.4739
176.989929 39.644 -67.5892
178.272476 39.376 -68.3225
179.564316 40.642 -61.7704
180.865509 41.984 11.7349
182.176132 42.855 77.1115
183.496262 43.414 112.1392
184.825958 43.784 19.5150
186.165283 43.633 5.4810
187.514313 43.229 -55.3901
188.873123 43.413 -83.8607
190.241776 43.803 -49.3181
191.620346 44.460 -34.6287
193.008911 46.436 -19.4636
194.407532 48.532 4.1438
195.816284 49.340 19.9348
197.235245 48.563 15.1599
198.664490 47.350 -16.6245
200.104095 47.216 -32.2985
201.554138 47.276 -39.8806
203.014679 46.377 -64.5166
204.485809 44.894 -95.6196
205.967590 44.035 -101.7185
207.460114 44.165 -104.5040
208.963455 44.103 -100.9733
210.477692 43.623 27.8701
212.002899 43.945 27.9261
213.539154 45.805 -7.8834
215.086548 47.770 -81.6278
216.645157 48.653 -102.3624
218.215057 48.275 -96.9176
219.796341 46.849 -93.4271
221.389069 44.662 -84.4697
222.993347 42.561 -100.6129
224.609253 41.211 141.9695
226.236862 40.888 59.6556
227.876266 42.434 -33.0731
229.527557 44.393 -29.1442
231.190811 44.956 -35.3322
232.866119 44.088 -49.1362
234.553558 42.886 -54.3683
236.253235 43.028 -17.6700
237.965225 45.190 12.8469
239.689621 47.772 1.4409
241.426514 49.808 -70.0219
243.175995 50.532 -90.3948
244.938141 49.813 -109.9496
246.713058 48.792 -122.7761
248.500839 48.590 -5.0227
250.301575 48.730 -34.8781
252.115356 49.229 -65.1893
253.942291 50.251 -60.7450
255.782455 50.566 -60.7910
257.635956 49.590 -117.0621
259.502899 48.238 -141.7500
261.383362 47.824 -134.4574
263.277466 48.819 -81.6033
265.185272 50.889 -59.8845
267.106903 52.709 -76.0818
269.042480 53.226 -87.3746
270.992065 52.488 -100.6658
272.955780 51.016 -115.5414
274.933716 49.449 -131.3246
276.925995 48.550 -126.4779
278.932709 48.508 -111.7888
280.953979 48.889 -99.4154
282.989899 49.269 -99.8081
285.040558 49.655 -127.6873
287.106079 50.275 -135.8627
289.186554 51.075 -116.9174
291.282104 51.720 -99.9033
293.392853 51.880 -99.9375
295.518890 51.188 -121.4817
297.660339 49.984 -119.9338
299.817322 49.443 -111.8970
301.989929 50.583 -102.0273
304.178284 52.354 -111.2700
306.382477 53.503 -127.2802
308.602661 53.566 -144.7412
310.838928 52.459 -158.0326
313.091400 50.953 -155.3684
315.360199 50.187 -143.1964
317.645416 49.545 -145.1991
319.947205 48.295 -146.7074
322.265686 47.190 -144.4658
324.600952 47.167 -146.4565
326.953156 48.544 -170.9174
329.322388 49.884 177.9106
331.708801 50.430 175.7764
334.112488 50.819 -163.7103
336.533600 51.459 -150.3492
338.972260 52.325 -130.5737
341.428589 53.822 -72.8030
343.902710 56.012 -172.2819
346.394775 57.829 151.0360
348.904907 58.467 137.0546
351.433228 57.798 164.2980
353.979858 56.441 -161.0345
356.544952 55.637 179.5894
359.128632 56.016 152.9808
361.731018 56.325 167.6207
364.352264 55.732 -141.8646
366.992523 54.564 -141.1808
369.651917 53.396 -157.7271
372.330566 52.478 -155.7952
375.028625 52.108 -148.5889
377.746246 52.553 -155.6730
380.483551 53.337 -168.4818
383.240692 53.957 -174.0111
386.017822 54.134 -174.2776
388.815063 54.165 -173.3245
391.632568 53.932 -177.9869
394.470490 53.365 176.2296
397.328979 53.276 -175.2059
400.208191 53.664 -174.2205
403.108276 53.745 167.7177
406.029358 53.190 -145.4862
408.971619 52.220 -138.0044
411.935181 51.453 -165.0968
414.920227 51.548 161.5781
417.926910 52.529 131.2080
420.955383 53.747 143.0858
424.005798 55.053 145.1294
427.078308 56.018 143.1948
430.173096 56.472 133.8334
433.290314 56.558 122.1119
436.430115 56.384 -82.4519
439.592682 56.128 -92.7517
442.778137 56.059 157.3262
445.986694 56.662 147.0635
449.218506 57.371 111.9414
452.473724 57.599 -156.1106
455.752533 57.250 -142.2889
459.055115 56.573 -149.5334
462.381622 56.361 -131.9625
465.732239 56.366 -89.4974
469.107117 56.063 -176.2762
472.506470 55.251 160.6279
475.930450 54.180 150.6621
479.379242 53.938 145.9867
482.853027 54.578 164.8873
486.351990 55.295 -175.1299
489.876282 56.181 176.9921
493.426117 56.456 155.2983
497.001678 55.620 149.4666
500.603149 54.691 172.6479
504.230713 54.489 -158.2955
507.884583 54.544 -152.4154
511.564911 54.685 -148.4745
515.271912 55.038 -161.8556
519.005798 55.255 -177.3467
522.766724 55.653 -161.3184
526.554932 57.019 -170.7548
530.370544 58.462 -176.7968
534.213806 58.720 154.6292
538.084961 58.026 124.7167
541.984131 56.980 131.2855
545.911560 56.310 130.6726
549.867432 56.048 115.8254
553.851990 56.147 115.2596
557.865417 56.657 133.7135
561.907959 56.853 155.1521
565.979797 56.392 143.8007
570.081116 55.672 131.9542
574.212158 55.365 139.1040
578.373108 55.564 155.1918
582.564209 55.764 166.8846
586.785706 55.788 167.2991
591.037781 56.362 153.3771
595.320679 57.944 -171.5999
599.634644 59.528 -153.0251
603.979858 60.147 -171.2207
608.356567 60.089 160.0577
612.764954 60.294 143.9722
617.205322 60.735 133.3120
621.677856 60.786 118.1339
626.182800 60.206 105.2920
630.720398 59.305 101.0447
635.290833 58.571 93.4321
639.894409 58.418 85.8975
644.531372 58.733 88.6439
649.201904 58.639 91.4568
653.906311 57.887 92.6926
658.644775 56.918 107.7947
663.417603 56.283 121.3607
668.224976 56.197 117.3282
673.067200 56.529 125.6188
677.944519 56.728 132.2771
682.857178 56.925 126.5576
687.805420 57.701 127.3685
692.789551 58.646 113.7136
697.809814 59.062 104.2321
702.866455 59.395 106.6720
707.959717 59.768 97.2366
713.089905 59.351 92.6892
718.257263 58.303 96.9501
723.462036 57.324 100.8297
728.704529 56.792 102.5292
733.985046 56.934 104.1539
739.303833 57.653 104.5272
744.661133 57.891 103.3424
750.057251 57.472 96.5493
755.492493 57.148 85.0760
760.967102 57.106 84.0847
766.481384 57.686 88.1364
772.035645 58.970 106.7512
777.630127 60.135 112.6201
783.265137 60.571 99.7972
788.940979 60.119 88.9075
794.657959 58.988 70.2729
800.416382 58.066 63.0236
806.216553 57.738 70.7363
812.058716 57.557 72.4790
817.943237 57.749 76.4213
823.870361 58.275 84.1932
829.840454 58.695 83.5883
835.853821 58.959 79.8594
841.910767 59.006 81.5526
848.011597 58.455 74.9172
854.156616 57.506 60.3156
860.346191 56.549 69.6300
866.580627 55.518 63.2047
872.860229 54.926 33.2731
879.185364 54.629 -137.1240
885.556274 54.572 122.2085
891.973389 55.135 111.2888
898.437012 56.017 39.8486
904.947449 56.405 40.0283
911.505066 56.266 61.6316
918.110229 56.275 87.9185
924.763245 56.250 105.8000
931.464478 56.314 142.5667
938.214233 57.187 168.9175
945.012939 58.084 161.3320
951.860901 58.234 132.3804
958.758484 57.693 114.6211
965.706055 56.773 110.5190
972.703979 56.110 124.4744
979.752563 55.739 121.2036
986.852234 55.850 127.9543
994.003357 56.682 136.3604
1001.206299 57.488 136.3704
1008.461426 58.118 134.5190
1015.769165 58.563 129.2690
1023.129822 58.415 114.8079
1030.543823 57.714 113.3164
1038.011597 57.332 123.7632
1045.533447 57.279 133.0781
1053.109863 57.207 135.4580
1060.741089 57.657 130.9785
1068.427612 58.706 131.6577
1076.169922 59.715 122.5164
1083.968262 60.652 113.2292
1091.823120 61.323 113.8628
1099.734863 61.145 114.5095
1107.703979 60.472 104.4785
1115.730835 60.099 99.5229
1123.815918 60.052 96.7910
1131.959595 60.118 95.1938
1140.162231 60.381 101.8081
1148.424316 60.749 107.6802
1156.746216 60.863 102.2888
1165.128418 60.379 91.8716
1173.571411 59.375 81.4719
1182.075562 58.422 79.5481
1190.641357 58.239 87.6812
1199.269287 59.123 88.1980
1207.959717 60.057 84.1577
1216.713135 60.276 77.5559
1225.529907 60.102 74.7173
1234.410645 59.695 72.2195
1243.355713 59.406 67.7104
1252.365601 59.488 58.8464
1261.440796 59.724 65.9570
1270.581665 60.335 87.8699
1279.788818 60.623 84.0823
1289.062744 60.126 70.5164
1298.403809 59.548 70.5669
1307.812622 59.872 57.6343
1317.289551 60.238 40.9988
1326.835205 60.144 54.0903
1336.449951 59.923 74.9756
1346.134399 59.734 70.7610
1355.889038 60.293 47.7769
1365.714355 61.125 31.6011
1375.610840 61.329 27.9683
1385.579102 60.747 23.5974
1395.619629 59.792 46.3008
1405.732910 59.564 62.4070
1415.919434 60.715 37.9199
1426.179810 62.100 30.9727
1436.514526 62.638 48.2173
1446.924072 62.594 59.1318
1457.409058 62.711 62.2122
1467.970093 62.744 56.3003
1478.607666 62.602 50.9258
1489.322266 63.172 32.4895
1500.114502 64.435 1.0840
1510.984985 65.649 -14.8499
1521.934204 66.582 31.1523
1532.962769 67.368 44.9033
1544.071289 67.584 65.2415
1555.260254 66.379 66.0364
1566.530273 64.636 29.4766
1577.881958 64.663 41.3794
1589.315918 66.420 62.3484
1600.832764 67.741 75.5308
1612.433105 67.897 109.1487
1624.117432 67.091 166.1934
1635.886475 65.682 128.1978
1647.740723 64.500 89.7542
1659.680908 64.431 69.7769
1671.707642 64.495 61.2998
1683.821533 64.216 55.3296
1696.023193 63.856 54.9419
1708.313232 63.868 50.4001
1720.692383 64.009 51.2725
1733.161255 64.072 13.7131
1745.720459 63.983 -15.1489
1758.370728 63.835 4.7463
1771.112549 63.946 32.8083
1783.946777 63.992 41.9067
1796.874023 63.746 35.2122
1809.894897 63.474 50.6611
1823.010132 63.578 43.2212
1836.220459 64.247 44.6389
1849.526489 65.089 54.6487
1862.928955 65.833 42.0205
1876.428467 65.676 48.8159
1890.025879 64.973 68.7246
1903.721802 64.819 71.4810
1917.516968 65.471 70.3296
1931.412109 66.970 57.3066
1945.407959 70.086 55.1592
1959.505127 73.981 83.0337
1973.704468 76.589 110.6790
1988.006714 76.389 108.4817
2002.412598 73.417 42.9299
2016.922852 69.243 13.0684
2031.538330 66.766 27.0889
2046.259644 66.740 29.9656
2061.087646 66.639 25.9978
2076.023193 65.646 24.0896
2091.066895 64.547 13.6455
2106.219727 64.206 4.7246
2121.482178 63.956 13.5801
2136.855225 63.505 14.6301
2152.339844 63.502 20.2795
2167.936523 63.545 31.7925
2183.646240 63.142 63.4614
2199.469727 62.856 60.0278
2215.407959 63.152 47.3496
2231.461670 63.762 66.0498
2247.631836 63.732 84.6592
2263.919189 63.124 80.7573
2280.324463 63.077 74.5168
2296.848633 63.625 74.7942
2313.492432 63.604 85.9077
2330.256836 63.173 75.0298
2347.142822 63.340 54.8308
2364.151123 63.595 61.3135
2381.282715 63.448 45.5471
2398.538574 63.205 34.5732
2415.919434 63.440 33.3804
2433.426270 64.108 40.6941
2451.059814 64.781 49.5295
2468.821289 65.247 53.2517
2486.711426 65.454 48.1648
2504.731201 65.881 50.4041
2522.881592 66.501 62.8174
2541.163330 66.586 54.9937
2559.577637 66.397 33.8040
2578.125488 66.741 -16.5527
2596.807617 67.006 12.0847
2615.625244 66.870 34.3594
2634.579102 66.582 26.5588
2653.670410 66.665 11.4385
2672.899902 67.301 38.5425
2692.268799 67.842 41.0876
2711.778076 67.572 32.4653
2731.428711 67.057 17.0432
2751.221680 67.407 -12.6521
2771.158203 68.101 -39.5291
2791.239258 67.943 -41.8557
2811.465820 67.085 -40.7393
2831.838867 66.600 -42.3779
2852.359619 66.891 -24.8540
2873.029053 66.818 22.2207
2893.848145 66.216 43.8069
2914.818115 65.827 37.2617
2935.940186 66.160 2.7717
2957.215332 66.596 21.3953
2978.644531 66.517 54.0789
3000.229004 66.715 127.8003
3021.969971 66.823 129.0811
3043.868408 66.548 84.3210
3065.925537 66.366 60.1958
3088.142578 66.206 24.8091
3110.520508 66.049 39.0886
3133.060547 65.977 57.4497
3155.763916 66.033 28.8440
3178.631836 66.313 -2.8831
3201.665527 66.715 -10.8755
3224.866211 67.229 -12.3691
3248.234863 67.513 -7.3127
3271.772949 67.297 30.0923
3295.481445 67.239 23.4348
3319.361816 67.468 7.3293
3343.415283 67.418 8.5012
3367.643066 66.769 14.0015
3392.046387 66.170 30.8940
3416.626465 66.435 21.1653
3441.384766 66.706 6.0950
3466.322510 66.226 -6.3203
3491.440918 65.614 -4.9175
3516.741455 65.359 -1.9768
3542.225098 65.339 -10.0015
3567.893555 64.858 -16.2588
3593.748047 64.300 -17.2222
3619.789795 64.291 -18.8291
3646.020264 64.221 -18.0603
3672.440918 63.720 -13.9351
3699.052979 63.588 -25.8489
3725.857910 63.779 -40.4236
3752.856934 63.681 -43.5327
3780.051758 63.438 -35.0518
3807.443604 63.194 -26.7610
3835.033936 63.715 -35.1550
3862.824219 65.759 -11.6292
3890.815918 67.775 11.7207
3919.010254 69.272 5.7581
3947.408936 70.479 -8.3999
3976.013428 70.705 -37.5422
4004.825195 70.171 15.6187
4033.845703 69.856 34.2202
4063.076660 70.069 5.7556
4092.519287 70.688 -65.0696
4122.175293 71.303 -86.0564
4152.046387 71.408 -85.1692
4182.133789 71.432 -88.2847
4212.439453 71.986 -86.8750
4242.964355 71.932 -103.4873
4273.710449 71.216 -132.7686
4304.679688 70.845 -147.9639
4335.873047 70.713 -178.1970
4367.292480 70.138 100.6323
4398.939453 69.539 69.7605
4430.815918 68.840 65.2844
4462.923340 67.770 52.5264
4495.263672 66.523 59.4797
4527.838379 65.252 73.9019
4560.648926 64.180 53.5642
4593.697266 63.455 31.3201
4626.984863 62.910 28.9282
4660.513672 62.679 21.1548
4694.285645 62.517 14.3447
4728.302246 62.429 11.3843
4762.565430 62.329 2.0063
4797.077148 62.097 -13.5588
4831.838867 62.118 -22.8386
4866.852539 62.353 -24.7043
4902.119629 62.569 -36.5652
4937.642578 62.602 -30.4902
4973.422852 62.635 -29.9382
5009.462402 62.868 -43.2297
5045.763184 62.789 -53.1692
5082.326660 62.713 -63.5435
5119.155273 63.053 -64.8418
5156.250977 63.401 -27.2805
5193.615234 63.538 18.1995
5231.250488 63.737 26.0806
5269.158203 63.795 32.5378
5307.340820 63.366 30.8711
5345.799805 62.749 20.8914
5384.537598 62.717 1.3508
5423.556152 63.536 40.8655
5462.857422 64.743 130.6335
5502.443359 65.917 -129.4485
5542.316406 67.232 16.6323
5582.478516 68.412 32.3914
5622.931641 68.890 19.5305
5663.677734 68.738 6.9824
5704.719238 67.949 19.8118
5746.058105 66.829 52.3347
5787.696289 65.856 64.9783
5829.636230 65.263 43.6855
5871.880371 65.326 33.3259
5914.430664 65.376 26.0115
5957.289062 64.929 16.4126
6000.458008 64.017 11.1394
6043.939941 62.993 7.5181
6087.736816 62.461 0.5923
6131.851074 62.352 -16.3083
6176.285156 61.988 -45.9121
6221.041016 61.707 -87.8787
6266.121094 62.002 -109.5332
6311.527832 62.594 52.2444
6357.263672 63.234 71.7292
6403.331055 63.679 74.7524
6449.732422 63.864 63.1340
6496.469727 63.732 60.3718
6543.545898 63.532 50.4792
6590.962891 63.655 40.8442
6638.723633 64.121 38.9312
6686.830566 64.604 43.5525
6735.286133 65.260 38.3169
6784.092773 66.182 30.2227
6833.252930 67.241 31.9336
6882.769531 68.140 39.7637
6932.645020 68.959 25.2458
6982.881836 69.613 31.6970
7033.482910 70.075 42.4524
7084.450195 70.473 51.4617
7135.787109 70.735 46.5989
7187.496094 70.762 31.0000
7239.579590 70.523 14.6772
7292.040527 70.267 23.0063
7344.881836 69.928 19.1670
7398.105957 69.789 -7.1602
7451.715820 69.803 -20.3740
7505.713867 69.350 -21.2241
7560.103516 68.610 -25.1797
7614.887207 68.068 -30.7905
7670.067871 67.410 -35.9980
7725.648438 66.542 -26.8655
7781.631836 66.266 -32.5625
7838.020508 66.930 -5.5251
7894.817871 67.600 20.9797
7952.026855 67.622 22.5542
8009.650391 67.321 6.2051
8067.691406 67.151 -14.9272
8126.153320 66.995 -24.1951
8185.038574 66.892 -29.8091
8244.350586 66.943 -43.2576
8304.092773 67.115 -49.7185
8364.267578 67.477 -54.5452
8424.878906 68.123 -100.5964
8485.928711 68.863 -119.9536
8547.420898 69.442 -83.2419
8609.359375 69.744 -7.3279
8671.746094 69.867 15.0383
8734.584961 69.780 2.8792
8797.878906 69.345 9.6528
8861.631836 68.678 32.9883
8925.846680 68.009 -67.8843
8990.527344 67.422 -92.0420
9055.676758 66.938 -80.0205
9121.297852 66.567 -22.5640
9187.394531 66.069 -3.4722
9253.969727 65.280 -0.4956
9321.027344 64.430 -10.4612
9388.571289 63.654 -17.6013
9456.604492 62.974 -20.1223
9525.130859 62.777 -27.0098
9594.154297 63.165 -7.0493
9663.677734 63.828 21.4221
9733.705078 64.544 9.9380
9804.239258 65.126 -15.9041
9875.285156 65.438 -43.3445
9946.845703 65.433 -71.4729
10018.924805 65.275 -93.8623
10091.526367 65.230 -108.7891
10164.653320 65.100 -155.1558
10238.310547 64.909 100.7031
10312.501953 64.558 70.2935
10387.230469 64.133 49.6064
10462.500977 63.849 21.1489
10538.316406 63.542 -14.1387
10614.681641 63.091 -34.2749
10691.599609 62.682 -35.7485
10769.075195 62.504 -29.8137
10847.112305 62.421 -49.5945
10925.714844 62.530 164.8108
11004.886719 62.711 141.9895
11084.632812 62.708 92.1404
11164.957031 62.904 36.9648
11245.863281 63.292 22.8640
11327.355469 63.366 -7.0803
11409.438477 63.302 -32.6357
11492.116211 63.139 -48.7686
11575.392578 62.745 -73.7629
11659.272461 62.385 -93.8086
11743.760742 62.099 -126.6189
11828.861328 61.822 -143.4553
11914.578125 61.409 -107.9189
12000.916016 60.710 12.5579
12087.879883 59.910 -25.9143
12175.473633 59.186 -58.4629
12263.702148 58.788 -88.7080
12352.570312 58.848 -78.7705
12442.082031 59.106 -19.2656
12532.242188 59.049 -31.6165
12623.055664 58.508 -48.4888
12714.527344 57.833 -62.8159
12806.662109 57.588 172.9309
12899.464844 57.939 84.7412
12992.939453 58.286 7.8447
13087.091797 58.275 -21.3560
13181.925781 58.256 -54.8047
13277.447266 58.506 -83.3113
13373.661133 58.962 -112.6436
13470.572266 59.533 -119.0847
13568.185547 59.890 -39.0889
13666.505859 59.653 -40.7971
13765.539062 58.890 -53.1416
13865.290039 58.179 -71.3652
13965.763672 57.983 -99.2400
14066.965820 58.278 -169.0774
14168.900391 58.735 -166.5239
14271.574219 59.200 -75.6343
14374.992188 59.729 -82.2375
14479.159180 59.944 -102.4646
14584.081055 59.518 -134.5520
14689.763672 58.916 -164.2966
14796.211914 58.443 152.5479
14903.431641 58.096 156.1716
15011.427734 57.834 163.1763
15120.207031 57.625 121.9719
15229.774414 57.614 82.7922
15340.135742 58.068 138.6826
15451.296875 58.742 156.0361
15563.263672 59.514 83.8784
15676.041016 60.443 49.6895
15789.635742 61.154 81.4475
15904.053711 61.120 110.6387
16019.300781 60.382 128.5134
16135.382812 59.497 104.0857
16252.306641 58.715 60.5649
16370.077148 58.028 24.6843
16488.701172 57.427 1.3757
16608.185547 57.040 8.0886
16728.535156 56.898 31.9578
16849.757812 56.741 60.8325
16971.857422 56.431 101.1824
17094.841797 56.211 -148.5957
17218.718750 56.262 -156.3376
17343.492188 56.490 156.4426
17469.169922 56.755 87.5767
17595.757812 56.904 49.5615
17723.263672 56.721 -104.6646
17851.693359 56.350 -101.6624
17981.054688 56.295 -89.0886
18111.353516 56.710 -85.0364
18242.595703 57.171 109.5112
18374.789062 57.386 119.0862
18507.939453 57.201 141.6777
18642.054688 56.679 144.9849
18777.142578 56.326 44.0278
18913.208984 57.092 35.1001
19050.261719 58.631 51.0557
19188.308594 59.462 145.9963
19327.355469 59.625 130.7988
19467.410156 59.937 87.3667
19608.478516 60.351 53.7268
19750.570312 61.851 21.9932
19893.691406 64.072 29.5254
20037.849609 0.000 35.4360
