* Measurement data measured by REW V5.30.2
* Source: EXCL: Microphone (Umik-1  Gain: 18dB), MICROPHONE (Master Volume), L, volume: 0.540
* Format: 256k Log Swept Sine, 1 sweep at -20.0 dBFS with no timing reference
* Dated: Jan 11, 2024 5:55:34 PM
* REW Settings:
*  C-weighting compensation: Off
*  Target level: 75.0 dB
* Note: measured 0.5 m away from mic; 
* Measurement: Fan 8
* Smoothing: 1/48 octave
* Frequency Step: 96 ppo
* Start Frequency: 20.141602 Hz
*
* Freq(Hz) SPL(dB) Phase(degrees)
20.141602 48.553 167.7270
20.287556 49.825 131.8962
20.434568 51.307 105.9095
20.582645 52.747 91.1344
20.731796 54.034 80.2402
20.882027 54.970 72.2816
21.033346 55.443 65.4425
21.185762 55.511 58.8239
21.339283 55.207 52.5306
21.493916 54.542 45.1986
21.649670 53.588 36.6335
21.806553 52.339 25.2945
21.964573 51.199 9.4998
22.123737 50.558 -10.7109
22.284056 50.488 -32.8608
22.445536 51.096 -50.0198
22.608185 52.198 -61.6130
22.772013 53.289 -68.5691
22.937029 54.267 -72.4240
23.103241 55.094 -74.7759
23.270657 55.747 -76.0396
23.439285 56.230 -77.0116
23.609137 56.541 -78.1201
23.780218 56.666 -79.4387
23.952539 56.588 -81.3882
24.126110 56.298 -83.9171
24.300938 55.779 -87.0821
24.477032 55.026 -91.1385
24.654402 54.037 -95.6530
24.833057 52.816 -101.1164
25.013008 51.378 -106.5964
25.194263 49.740 -112.1659
25.376831 47.951 -116.2453
25.560722 46.119 -117.2251
25.745945 44.665 -113.4034
25.932510 43.865 -103.1441
26.120428 44.151 -91.7226
26.309708 45.261 -82.7482
26.500359 46.441 -78.3300
26.692390 47.502 -76.8705
26.885815 48.207 -77.2749
27.080641 48.556 -79.0300
27.276878 48.552 -81.8934
27.474539 48.217 -86.2122
27.673630 47.573 -92.7447
27.874165 46.772 -102.6141
28.076153 45.964 -118.0919
28.279604 45.653 -139.3399
28.484529 46.043 -163.7430
28.690941 46.945 175.8610
28.898848 48.071 160.4452
29.108261 48.955 149.0020
29.319191 49.500 139.8955
29.531651 49.617 132.0043
29.745649 49.296 125.3161
29.961199 48.530 119.2563
30.178310 47.337 114.7166
30.396996 45.785 111.7995
30.617264 43.997 112.2220
30.839128 42.388 115.7194
31.062601 41.290 122.0247
31.287693 40.830 126.4005
31.514416 40.661 128.5554
31.742783 40.246 128.6360
31.972803 39.376 132.4410
32.204491 38.529 146.1431
32.437859 39.247 179.4479
32.672916 41.334 -157.4157
32.909679 43.933 -151.3971
33.148155 45.808 -154.5985
33.388359 46.867 -161.2548
33.630306 47.092 -171.6162
33.874004 46.542 174.8548
34.119469 45.617 153.7080
34.366711 45.025 108.4883
34.615746 46.027 46.7954
34.866585 47.940 13.7584
35.119244 49.819 -5.6257
35.373734 51.102 -19.9948
35.630066 51.778 -32.3370
35.888256 51.868 -44.3011
36.148315 51.412 -55.9486
36.410259 50.420 -67.5720
36.674103 48.886 -80.1334
36.939857 46.795 -94.3890
37.207539 44.152 -112.0358
37.477161 41.151 -138.4030
37.748737 38.135 179.9574
38.022282 35.607 138.5892
38.297806 33.273 117.2955
38.575329 31.308 118.7225
38.854862 30.897 171.6010
39.136421 32.937 -164.2880
39.420021 34.795 -171.3548
39.705673 36.007 169.5227
39.993397 37.157 131.3008
40.283207 38.967 80.6752
40.575115 41.142 50.1659
40.869141 42.862 34.8499
41.165295 43.828 27.0645
41.463596 44.044 25.0493
41.764057 43.778 30.0276
42.066696 43.568 42.7623
42.371529 43.808 57.7326
42.678570 44.180 68.7958
42.987835 44.201 75.6140
43.299343 43.548 80.4597
43.613110 42.142 85.5364
43.929150 40.082 91.4250
44.247478 37.832 93.7479
44.568115 37.521 39.4804
44.891075 40.072 -57.3755
45.216373 43.264 -67.5140
45.544029 45.608 -76.1515
45.874062 46.898 -86.0844
46.206486 47.204 -97.3851
46.541317 46.583 -109.3802
46.878574 45.054 -120.2454
47.218277 42.698 -125.0867
47.560440 40.234 -111.0766
47.905083 39.635 -78.6144
48.252224 40.628 -65.9896
48.601879 41.357 -65.5165
48.954067 41.062 -66.4487
49.308807 39.754 -64.4413
49.666119 37.750 -58.9474
50.026020 35.727 -57.8852
50.388531 35.323 -94.7227
50.753666 37.274 -161.2527
51.121449 39.699 -178.1199
51.491894 41.093 176.2272
51.865025 41.179 175.8525
52.240860 40.192 -177.3350
52.619419 38.821 -161.7249
53.000721 37.945 -149.3276
53.384785 38.073 -159.5908
53.771633 39.535 157.3269
54.161285 41.747 121.8140
54.553761 43.592 107.8728
54.949081 44.623 104.2256
55.347263 45.025 108.1467
55.748333 45.268 118.2908
56.152309 45.658 129.7100
56.559212 46.043 138.0156
56.969063 46.180 144.4515
57.381886 46.164 152.5880
57.797699 46.332 163.0278
58.216526 46.719 171.4258
58.638386 46.866 174.8547
59.063305 46.252 174.6172
59.491302 44.551 173.6904
59.922401 41.672 177.5861
60.356625 38.051 -149.1422
60.793995 35.072 -91.8782
61.234531 34.196 -103.3245
61.678261 35.671 -167.5376
62.125206 37.977 160.9316
62.575390 39.484 147.2825
63.028835 39.713 134.3512
63.485569 38.951 111.6978
63.945610 38.395 23.5293
64.408989 38.732 -42.0643
64.875725 38.781 -65.2332
65.345840 37.845 -79.0085
65.819366 37.208 -48.1375
66.296318 38.489 -1.3213
66.776726 40.102 -11.5012
67.260620 40.454 -26.5571
67.748016 39.227 -36.3292
68.238945 36.952 -20.6041
68.733429 35.204 53.4525
69.231499 34.349 69.9600
69.733177 33.643 86.4502
70.238495 34.133 111.2925
70.747475 35.557 108.6799
71.260139 36.478 89.1174
71.776520 36.343 68.5393
72.296638 35.181 51.5774
72.820526 34.134 32.9301
73.348213 35.529 8.3331
73.879723 38.522 -4.2159
74.415085 41.011 -6.1545
74.954330 42.408 -3.0050
75.497482 42.701 5.1344
76.044571 42.081 20.2069
76.595619 40.937 42.7648
77.150665 39.983 76.3932
77.709732 40.503 144.5116
78.272850 42.356 179.5349
78.840050 43.707 -176.6902
79.411354 43.662 -179.1558
79.986801 42.346 -172.2610
80.566422 40.999 -132.4176
81.150238 40.734 -103.5865
81.738289 40.962 -81.6640
82.330597 42.024 -14.0533
82.927200 43.336 0.9846
83.528122 43.331 -5.5883
84.133400 41.672 -18.8239
84.743065 39.287 -174.8815
85.357147 37.261 162.9128
85.975677 36.193 168.2594
86.598694 37.917 -149.6003
87.226227 41.479 -16.0768
87.858307 44.427 -26.7596
88.494965 45.836 -45.6230
89.136238 45.544 -67.8248
89.782158 43.713 -92.7725
90.432755 41.000 175.2441
91.088066 38.651 63.1084
91.748131 38.323 75.5005
92.412979 40.233 83.5500
93.082642 41.999 65.7471
93.757156 42.344 51.6691
94.436562 41.438 56.1899
95.120888 40.536 79.0125
95.810173 40.377 75.2137
96.504456 40.898 16.4719
97.203766 41.908 -33.1482
97.908142 42.500 -52.8782
98.617622 42.213 -68.6799
99.332245 41.553 -82.4617
100.052048 42.275 -59.1299
100.777069 44.833 -7.8832
101.507339 46.988 -9.7999
102.242905 47.503 -20.2397
102.983795 46.210 -30.6243
103.730057 43.644 -11.6718
104.481728 40.949 96.1714
105.238846 38.378 87.4480
106.001450 35.546 75.1606
106.769577 34.155 44.7085
107.543274 35.533 -23.2087
108.322578 37.404 -48.3134
109.107529 38.774 -36.8898
109.898170 40.120 10.3141
110.694534 41.374 44.9706
111.496674 42.370 55.4926
112.304626 43.627 1.2128
113.118431 45.323 -61.0870
113.938133 47.118 -21.6593
114.763779 49.165 47.4557
115.595406 51.206 95.0571
116.433060 53.059 159.5675
117.276779 53.921 154.2444
118.126617 53.723 144.1318
118.982613 53.955 146.8291
119.844810 54.640 148.2258
120.713257 54.153 146.6182
121.587997 52.138 153.8198
122.469070 49.757 -60.6075
123.356529 48.287 -39.7078
124.250420 46.714 -38.9139
125.150787 44.143 -34.5415
126.057678 41.662 4.5203
126.971146 40.744 4.9029
127.891228 40.523 -48.1877
128.817978 40.733 -108.2382
129.751450 41.220 -116.4338
130.691681 41.349 -112.5704
131.638733 41.356 -112.8564
132.592636 41.483 -134.9268
133.553452 41.458 83.3059
134.521240 41.209 19.2858
135.496033 40.894 10.9962
136.477890 40.963 19.2321
137.466858 41.607 -2.2996
138.462997 42.981 -94.5242
139.466354 43.955 -96.3179
140.476990 43.813 -65.7609
141.494949 43.308 -8.9602
142.520279 42.867 0.4010
143.553040 42.270 -4.3654
144.593277 41.890 31.3037
145.641052 41.892 61.8782
146.696426 41.876 65.5591
147.759445 42.953 71.3130
148.830170 44.760 75.2864
149.908661 45.508 73.1547
150.994965 45.140 82.3831
152.089142 44.917 102.7292
153.191238 44.615 95.1176
154.301331 43.307 59.4602
155.419464 42.015 -6.9075
156.545700 42.320 15.7592
157.680099 43.363 66.1449
158.822708 43.562 74.4307
159.973602 43.200 85.4304
161.132843 44.222 114.2241
162.300476 46.191 148.8057
163.476578 47.406 168.3202
164.661194 46.919 160.0359
165.854401 44.840 120.8497
167.056244 42.407 90.5068
168.266800 41.762 78.2386
169.486130 42.625 75.9199
170.714294 43.406 75.1326
171.951355 44.561 42.9980
173.197388 46.048 29.7125
174.452454 46.440 31.1428
175.716614 45.614 19.8949
176.989929 45.563 -26.4718
178.272476 46.945 1.5192
179.564316 48.041 34.7817
180.865509 47.570 44.1958
182.176132 45.336 55.6184
183.496262 42.452 75.8115
184.825958 41.447 16.4055
186.165283 42.313 -19.7914
187.514313 42.500 -6.8282
188.873123 41.595 14.9784
190.241776 41.224 -149.4242
191.620346 42.899 -142.5670
193.008911 45.558 -29.2614
194.407532 47.992 32.4773
195.816284 49.041 28.6238
197.235245 48.253 3.0851
198.664490 46.594 -32.7500
200.104095 45.780 -3.9102
201.554138 46.414 -15.3262
203.014679 47.191 -45.5817
204.485809 46.888 -60.1862
205.967590 45.799 -67.6700
207.460114 44.959 -60.8109
208.963455 44.534 -51.2229
210.477692 43.966 -47.1030
212.002899 42.944 -55.6466
213.539154 41.910 -31.0104
215.086548 42.406 -20.5137
216.645157 44.032 -65.8114
218.215057 45.229 -83.1122
219.796341 45.517 -92.7762
221.389069 45.156 -109.4932
222.993347 44.261 -109.8112
224.609253 43.220 -54.7897
226.236862 42.685 -41.7214
227.876266 43.309 -52.4390
229.527557 44.534 -53.1057
231.190811 44.989 -50.7787
232.866119 44.737 -75.2975
234.553558 45.420 -128.8763
236.253235 47.597 -146.5645
237.965225 49.983 -118.6647
239.689621 51.380 -86.0221
241.426514 51.464 -76.4186
243.175995 50.344 -102.4487
244.938141 48.371 -116.5875
246.713058 46.455 -119.8159
248.500839 46.720 -87.6389
250.301575 48.289 -85.2568
252.115356 49.374 -95.0425
253.942291 49.985 -86.9587
255.782455 50.588 -69.1930
257.635956 51.552 -59.2932
259.502899 51.993 -65.1141
261.383362 51.263 -109.6461
263.277466 50.048 -148.6797
265.185272 49.309 -165.2747
267.106903 49.204 -171.3395
269.042480 48.849 158.3519
270.992065 48.073 168.6329
272.955780 47.180 -161.1538
274.933716 46.726 -126.3660
276.925995 46.903 -111.1920
278.932709 47.989 -98.7860
280.953979 49.406 -75.5117
282.989899 50.108 -69.5704
285.040558 49.766 -64.9498
287.106079 49.398 -73.5814
289.186554 50.406 -55.8550
291.282104 51.579 14.4431
293.392853 51.409 35.2239
295.518890 50.013 41.7605
297.660339 49.460 -153.6332
299.817322 50.441 -145.6558
301.989929 51.193 -127.6235
304.178284 50.874 -105.8283
306.382477 49.783 -112.3957
308.602661 48.698 -154.9863
310.838928 47.923 -166.4324
313.091400 47.958 -147.7832
315.360199 48.681 -135.8018
317.645416 49.331 -155.5662
319.947205 49.846 -160.5220
322.265686 49.932 -149.1572
324.600952 50.139 -131.0610
326.953156 51.560 -105.6995
329.322388 53.637 -94.3796
331.708801 55.221 -104.2475
334.112488 55.639 -139.8120
336.533600 55.121 -160.2031
338.972260 54.571 -116.2617
341.428589 54.173 -127.7009
343.902710 53.572 -145.3928
346.394775 52.678 -163.9944
348.904907 51.588 -165.1790
351.433228 50.910 -150.4895
353.979858 50.921 -151.2401
356.544952 51.320 -159.2145
359.128632 52.005 -157.7272
361.731018 53.306 177.7229
364.352264 54.860 142.0913
366.992523 55.503 149.2172
369.651917 54.972 -178.8789
372.330566 53.855 -147.7588
375.028625 52.959 -127.4033
377.746246 53.169 -116.0605
380.483551 54.162 -134.0964
383.240692 54.915 -132.6970
386.017822 55.486 -130.6492
388.815063 56.105 -139.4333
391.632568 56.371 -141.0696
394.470490 56.445 -127.2150
397.328979 56.340 -145.3220
400.208191 55.916 -167.6608
403.108276 55.169 -179.6401
406.029358 54.136 162.7615
408.971619 53.605 -109.9831
411.935181 54.137 -146.1940
414.920227 54.962 -166.0422
417.926910 55.548 -176.5688
420.955383 55.955 -178.7527
424.005798 56.234 -176.9243
427.078308 56.177 148.8669
430.173096 55.563 96.4526
433.290314 54.340 157.0150
436.430115 53.322 -129.6018
439.592682 53.073 -150.3140
442.778137 53.144 179.4822
445.986694 53.516 -179.1924
449.218506 54.632 -161.8478
452.473724 56.673 -138.8549
455.752533 58.900 -126.3749
459.055115 60.607 -121.1296
462.381622 61.762 -131.2882
465.732239 62.123 -167.2686
469.107117 61.600 128.5044
472.506470 60.123 131.7151
475.930450 57.930 148.4805
479.379242 56.193 141.3652
482.853027 56.347 162.3617
486.351990 57.443 -162.9155
489.876282 57.966 -172.0110
493.426117 57.969 -173.5249
497.001678 57.350 -169.1270
500.603149 55.953 -174.6621
504.230713 54.493 173.0554
507.884583 54.392 162.4463
511.564911 56.000 -174.7727
515.271912 58.121 -142.9733
519.005798 59.721 -147.6025
522.766724 60.409 -147.5881
526.554932 61.015 -126.6156
530.370544 61.880 -136.2410
534.213806 62.173 -150.3853
538.084961 61.412 177.2617
541.984131 59.672 142.7334
545.911560 57.657 120.3190
549.867432 56.772 115.8289
553.851990 57.392 122.4410
557.865417 58.192 125.4551
561.907959 57.973 133.3943
565.979797 56.598 154.1572
570.081116 54.887 136.9955
574.212158 54.163 118.4404
578.373108 54.589 108.9469
582.564209 55.788 105.3530
586.785706 56.876 102.9724
591.037781 57.443 102.5364
595.320679 58.208 157.1759
599.634644 59.176 -174.0692
603.979858 59.704 166.2512
608.356567 59.753 129.6929
612.764954 59.855 112.0938
617.205322 60.495 115.7953
621.677856 60.953 105.8601
626.182800 60.621 96.1770
630.720398 59.796 93.8812
635.290833 58.640 95.5737
639.894409 57.446 93.5880
644.531372 56.439 90.0026
649.201904 55.821 83.1045
653.906311 55.884 93.0807
658.644775 56.194 130.2771
663.417603 55.973 132.5326
668.224976 55.393 104.4698
673.067200 55.452 126.5713
677.944519 56.128 130.3276
682.857178 57.061 128.9985
687.805420 58.355 142.8065
692.789551 59.588 127.7437
697.809814 60.088 130.9165
702.866455 60.002 123.3835
707.959717 59.785 95.0681
713.089905 59.351 77.7927
718.257263 58.488 81.3169
723.462036 57.202 103.7510
728.704529 55.819 108.7588
733.985046 55.211 83.2664
739.303833 55.510 73.7742
744.661133 55.761 81.1055
750.057251 55.618 93.9377
755.492493 55.462 84.0959
760.967102 55.609 48.5166
766.481384 55.973 48.6852
772.035645 56.453 91.2415
777.630127 57.377 125.9775
783.265137 58.593 116.5723
788.940979 59.504 102.4736
794.657959 59.661 99.6144
800.416382 58.893 90.9673
806.216553 57.270 64.4512
812.058716 55.712 47.2782
817.943237 54.707 72.2034
823.870361 54.062 55.8180
829.840454 54.522 68.3135
835.853821 56.379 97.7112
841.910767 57.972 96.3706
848.011597 58.066 93.4844
854.156616 56.710 83.6594
860.346191 55.172 42.4358
866.580627 54.696 30.7085
872.860229 55.034 128.2329
879.185364 55.585 122.9978
885.556274 55.711 112.5352
891.973389 55.620 142.6946
898.437012 55.745 136.8096
904.947449 55.871 132.8569
911.505066 55.820 125.3495
918.110229 55.836 118.6531
924.763245 56.472 117.1615
931.464478 57.425 146.0198
938.214233 58.210 169.5659
945.012939 58.604 153.9636
951.860901 58.600 121.9336
958.758484 58.104 101.3967
965.706055 57.093 90.8357
972.703979 56.083 108.3171
979.752563 55.507 118.3762
986.852234 55.387 112.9421
994.003357 55.445 118.7954
1001.206299 55.329 128.4911
1008.461426 55.924 118.9485
1015.769165 57.432 107.9634
1023.129822 58.137 94.5845
1030.543823 57.607 82.6515
1038.011597 56.924 92.0582
1045.533447 57.233 105.0991
1053.109863 57.927 110.2036
1060.741089 58.609 111.2300
1068.427612 59.324 112.7322
1076.169922 59.680 105.6968
1083.968262 59.585 97.7498
1091.823120 59.419 92.5957
1099.734863 59.350 98.2644
1107.703979 59.323 97.4883
1115.730835 59.076 97.2856
1123.815918 58.908 102.8101
1131.959595 59.073 103.5134
1140.162231 59.480 105.4705
1148.424316 60.012 107.4453
1156.746216 60.374 94.8435
1165.128418 60.425 77.6133
1173.571411 60.381 69.6665
1182.075562 60.207 63.3022
1190.641357 59.947 71.3314
1199.269287 60.086 82.6165
1207.959717 60.302 77.4977
1216.713135 60.181 76.0332
1225.529907 60.344 82.3943
1234.410645 60.668 75.8751
1243.355713 60.756 63.4792
1252.365601 60.297 56.2146
1261.440796 59.582 51.7788
1270.581665 59.239 50.6912
1279.788818 59.067 52.0944
1289.062744 58.511 52.1633
1298.403809 58.275 66.0709
1307.812622 58.717 62.6001
1317.289551 58.743 42.1436
1326.835205 58.548 41.6277
1336.449951 59.160 62.0300
1346.134399 60.659 64.3905
1355.889038 61.982 60.2980
1365.714355 62.210 59.0227
1375.610840 61.534 53.6193
1385.579102 60.807 43.2019
1395.619629 60.707 75.4209
1405.732910 60.675 89.5605
1415.919434 60.170 87.5886
1426.179810 59.888 66.5771
1436.514526 60.670 44.6825
1446.924072 61.741 59.7975
1457.409058 62.341 83.1240
1467.970093 62.507 90.3259
1478.607666 62.668 94.3313
1489.322266 63.208 81.8314
1500.114502 63.976 57.4005
1510.984985 64.404 50.6324
1521.934204 64.644 34.0715
1532.962769 64.590 -1.2689
1544.071289 63.631 -9.5762
1555.260254 62.347 27.7373
1566.530273 62.490 51.8625
1577.881958 63.979 71.1433
1589.315918 65.290 90.9037
1600.832764 65.544 70.6084
1612.433105 65.210 48.5284
1624.117432 64.865 54.0607
1635.886475 64.615 55.0874
1647.740723 64.584 56.4866
1659.680908 64.615 56.9717
1671.707642 64.991 51.6084
1683.821533 65.807 39.0231
1696.023193 66.196 26.8596
1708.313232 65.638 23.6074
1720.692383 64.939 21.2686
1733.161255 65.186 12.9524
1745.720459 65.878 -0.8196
1758.370728 66.178 -2.0027
1771.112549 66.003 6.3125
1783.946777 65.680 6.4556
1796.874023 64.996 -7.7762
1809.894897 64.309 -19.2499
1823.010132 63.911 -19.7532
1836.220459 63.893 -10.9751
1849.526489 64.551 34.3744
1862.928955 65.449 53.8190
1876.428467 65.572 57.4766
1890.025879 64.904 43.8430
1903.721802 64.561 32.4539
1917.516968 64.717 30.4670
1931.412109 65.039 10.4576
1945.407959 65.799 -2.2352
1959.505127 67.925 -19.8202
1973.704468 71.552 -49.5177
1988.006714 74.692 -79.0087
2002.412598 75.410 -82.4999
2016.922852 73.265 -36.3448
2031.538330 69.588 24.7638
2046.259644 66.364 70.1069
2061.087646 64.587 132.0137
2076.023193 63.448 130.6088
2091.066895 63.191 97.3972
2106.219727 63.616 84.8789
2121.482178 63.437 78.0905
2136.855225 62.685 53.6903
2152.339844 62.729 42.0797
2167.936523 63.552 30.7860
2183.646240 63.777 33.8750
2199.469727 63.219 46.4843
2215.407959 62.617 35.1781
2231.461670 62.227 16.4706
2247.631836 61.949 25.2939
2263.919189 61.750 59.0428
2280.324463 61.559 52.7588
2296.848633 61.444 41.8599
2313.492432 61.618 47.9307
2330.256836 61.838 55.0664
2347.142822 62.212 59.2932
2364.151123 63.173 61.8678
2381.282715 63.913 56.4983
2398.538574 63.689 48.1176
2415.919434 62.871 39.6514
2433.426270 62.219 32.4602
2451.059814 62.068 32.2278
2468.821289 62.131 18.5305
2486.711426 62.455 8.6461
2504.731201 62.822 15.4053
2522.881592 62.876 10.8606
2541.163330 63.114 25.5062
2559.577637 64.202 37.2272
2578.125488 65.257 20.0503
2596.807617 65.401 22.4180
2615.625244 64.937 45.4161
2634.579102 64.823 31.1404
2653.670410 64.864 27.1421
2672.899902 64.595 57.3563
2692.268799 64.401 44.2574
2711.778076 64.454 24.6992
2731.428711 65.203 12.6948
2751.221680 66.096 4.1461
2771.158203 66.471 20.6382
2791.239258 67.060 22.1279
2811.465820 67.788 3.1215
2831.838867 67.204 9.8450
2852.359619 65.733 37.5166
2873.029053 64.504 46.2106
2893.848145 64.370 41.1621
2914.818115 64.749 32.1652
2935.940186 65.157 37.8604
2957.215332 65.472 43.6521
2978.644531 65.861 28.4146
3000.229004 66.595 19.3638
3021.969971 66.588 6.6936
3043.868408 65.761 33.2324
3065.925537 64.871 47.7930
3088.142578 64.060 53.0289
3110.520508 63.641 47.7012
3133.060547 63.701 46.2740
3155.763916 63.786 33.0538
3178.631836 63.913 21.2043
3201.665527 63.704 18.9879
3224.866211 63.324 11.3939
3248.234863 62.905 -0.8358
3271.772949 62.168 -6.0437
3295.481445 61.670 17.2299
3319.361816 61.589 32.9355
3343.415283 61.247 27.3613
3367.643066 60.761 18.9766
3392.046387 60.906 25.8684
3416.626465 61.878 28.7378
3441.384766 62.886 14.6438
3466.322510 63.475 8.7488
3491.440918 64.116 21.0021
3516.741455 64.864 20.9972
3542.225098 65.330 7.7263
3567.893555 65.502 1.5029
3593.748047 65.756 4.9426
3619.789795 66.270 9.3981
3646.020264 66.893 -0.4478
3672.440918 67.549 -10.1044
3699.052979 68.075 -12.3649
3725.857910 68.590 -33.9779
3752.856934 69.283 -52.9613
3780.051758 69.947 -50.6653
3807.443604 70.506 -75.2748
3835.033936 71.321 -104.5594
3862.824219 71.951 -96.8494
3890.815918 72.573 -66.2795
3919.010254 73.712 -37.0500
3947.408936 75.501 29.2493
3976.013428 77.111 49.3049
4004.825195 77.420 74.0483
4033.845703 76.509 79.8087
4063.076660 75.720 68.4226
4092.519287 75.384 16.6233
4122.175293 75.517 -22.6190
4152.046387 75.600 -28.1401
4182.133789 75.412 -59.9193
4212.439453 75.459 -66.2162
4242.964355 75.438 -71.7046
4273.710449 75.392 -77.5072
4304.679688 75.211 -81.3724
4335.873047 74.941 -101.5844
4367.292480 74.681 60.2147
4398.939453 74.062 80.9137
4430.815918 72.716 103.6565
4462.923340 71.261 104.5042
4495.263672 69.947 92.8896
4527.838379 68.967 86.2781
4560.648926 68.224 65.9004
4593.697266 67.404 46.2037
4626.984863 66.934 29.0746
4660.513672 67.006 17.3188
4694.285645 66.992 9.4795
4728.302246 66.596 -0.1763
4762.565430 66.144 -16.6998
4797.077148 66.036 -26.4373
4831.838867 66.189 -55.6456
4866.852539 66.345 -81.7739
4902.119629 66.422 -85.6052
4937.642578 66.437 -87.1971
4973.422852 66.623 -56.8390
5009.462402 66.900 13.5914
5045.763184 66.906 12.7885
5082.326660 66.682 28.0945
5119.155273 66.493 45.7050
5156.250977 66.405 44.0420
5193.615234 66.164 -45.7771
5231.250488 65.807 -90.6694
5269.158203 65.424 -73.5719
5307.340820 64.968 6.6079
5345.799805 64.766 94.2474
5384.537598 64.934 99.9574
5423.556152 65.278 87.3618
5462.857422 65.726 75.4878
5502.443359 66.387 48.5884
5542.316406 66.744 38.1240
5582.478516 67.094 31.1802
5622.931641 67.664 8.8730
5663.677734 67.985 -3.4805
5704.719238 67.737 -7.7554
5746.058105 67.070 -23.7395
5787.696289 66.227 -9.4579
5829.636230 65.504 30.6937
5871.880371 65.079 54.2740
5914.430664 64.854 47.8721
5957.289062 64.720 42.9603
6000.458008 64.386 37.6454
6043.939941 64.048 25.1029
6087.736816 63.989 21.4301
6131.851074 63.763 17.1569
6176.285156 63.599 19.2941
6221.041016 63.650 17.8499
6266.121094 63.517 -0.5497
6311.527832 63.148 19.9384
6357.263672 62.574 63.8562
6403.331055 62.104 86.6248
6449.732422 61.771 89.7498
6496.469727 61.285 67.6768
6543.545898 60.675 56.4287
6590.962891 60.051 54.8224
6638.723633 59.497 50.9115
6686.830566 59.233 55.8529
6735.286133 59.506 64.9945
6784.092773 60.159 69.1428
6833.252930 60.775 61.9778
6882.769531 61.114 49.3867
6932.645020 61.498 43.9828
6982.881836 61.900 47.3840
7033.482910 62.357 48.7494
7084.450195 62.814 44.9214
7135.787109 62.991 42.4509
7187.496094 62.932 41.9884
7239.579590 63.266 36.6646
7292.040527 63.707 27.7482
7344.881836 63.766 16.3798
7398.105957 63.436 -2.3097
7451.715820 63.127 -15.2748
7505.713867 63.179 -9.8533
7560.103516 63.367 -0.5870
7614.887207 63.651 9.0297
7670.067871 64.262 23.4370
7725.648438 64.743 28.0720
7781.631836 64.588 20.7098
7838.020508 64.204 10.5159
7894.817871 64.150 4.5337
7952.026855 64.234 -3.6414
8009.650391 64.302 -11.9423
8067.691406 64.200 -10.3339
8126.153320 63.952 -13.1876
8185.038574 63.929 -18.0320
8244.350586 64.482 -22.0703
8304.092773 65.318 -36.4688
8364.267578 66.226 -42.1259
8424.878906 67.271 -52.8453
8485.928711 68.318 -62.5720
8547.420898 68.924 -55.4592
8609.359375 69.121 -48.3639
8671.746094 69.276 -26.7572
8734.584961 69.360 -35.8723
8797.878906 69.380 -52.8969
8861.631836 69.417 -62.8876
8925.846680 69.426 -55.5570
8990.527344 69.356 -32.1200
9055.676758 68.983 -23.4557
9121.297852 68.106 -25.9778
9187.394531 66.939 -44.4539
9253.969727 65.878 -54.9498
9321.027344 65.111 -65.3365
9388.571289 64.626 52.4019
9456.604492 64.359 34.2891
9525.130859 64.316 22.2690
9594.154297 64.505 -5.4949
9663.677734 64.631 -29.5055
9733.705078 64.498 -32.7922
9804.239258 64.193 -29.5220
9875.285156 63.591 -33.0948
9946.845703 62.762 -40.5164
10018.924805 62.065 -28.7738
10091.526367 62.044 -27.3384
10164.653320 62.696 -44.9377
10238.310547 63.226 -71.3149
10312.501953 63.541 -99.8922
10387.230469 63.664 -154.3307
10462.500977 63.761 76.4181
10538.316406 63.852 55.7360
10614.681641 63.854 28.7596
10691.599609 63.646 -0.5273
10769.075195 63.258 -13.9563
10847.112305 62.873 -13.0873
10925.714844 62.732 -6.9580
11004.886719 62.946 -10.5460
11084.632812 63.100 -25.5127
11164.957031 62.821 -47.9672
11245.863281 62.095 -66.2721
11327.355469 61.150 -70.2316
11409.438477 60.192 -18.8451
11492.116211 59.410 17.4142
11575.392578 58.969 5.3140
11659.272461 58.943 -19.4846
11743.760742 58.924 -44.2112
11828.861328 58.742 -61.5215
11914.578125 58.630 -63.5183
12000.916016 58.604 -58.3439
12087.879883 58.689 -78.7644
12175.473633 58.909 -115.6824
12263.702148 59.279 -117.3303
12352.570312 59.852 -3.8103
12442.082031 60.433 0.2578
12532.242188 60.839 -8.5084
12623.055664 60.974 -46.4564
12714.527344 60.718 -95.2152
12806.662109 60.252 -122.7666
12899.464844 59.877 120.0411
12992.939453 59.555 23.9110
13087.091797 59.055 6.7101
13181.925781 58.488 2.9272
13277.447266 58.402 39.6071
13373.661133 59.002 11.4071
13470.572266 59.875 -39.5321
13568.185547 60.660 -62.9344
13666.505859 60.880 -66.5051
13765.539062 60.502 -62.6096
13865.290039 59.817 -46.7767
13965.763672 58.835 -39.5547
14066.965820 57.971 -56.1807
14168.900391 57.633 -78.0601
14271.574219 57.638 -119.3345
14374.992188 57.664 -140.0542
14479.159180 57.807 -159.9934
14584.081055 58.312 166.6917
14689.763672 58.859 166.4155
14796.211914 59.133 -150.1685
14903.431641 59.046 -127.2666
15011.427734 58.873 -112.2886
15120.207031 58.934 -93.9790
15229.774414 58.895 -117.7251
15340.135742 58.465 -156.6235
15451.296875 57.906 -162.2598
15563.263672 57.621 90.9692
15676.041016 57.741 51.7527
15789.635742 58.047 56.3496
15904.053711 58.261 102.7449
16019.300781 58.217 110.5920
16135.382812 57.816 83.4727
16252.306641 57.160 45.8118
16370.077148 56.435 16.2114
16488.701172 55.812 -70.0427
16608.185547 55.247 -138.8284
16728.535156 54.730 133.8618
16849.757812 54.631 90.7483
16971.857422 55.247 50.3782
17094.841797 56.077 -99.3076
17218.718750 56.489 -160.5151
17343.492188 56.429 102.0288
17469.169922 56.045 27.4041
17595.757812 55.730 -8.2097
17723.263672 55.600 -12.2612
17851.693359 55.575 18.4553
17981.054688 55.551 -68.1406
18111.353516 55.609 -122.0327
18242.595703 55.910 140.0479
18374.789062 56.611 113.3254
18507.939453 57.278 119.4607
18642.054688 57.525 155.4268
18777.142578 57.541 157.7571
18913.208984 57.787 153.2395
19050.261719 58.357 165.9458
19188.308594 58.618 114.7732
19327.355469 58.591 83.8882
19467.410156 58.972 154.9546
19608.478516 59.467 -145.7070
19750.570312 60.995 -175.4297
19893.691406 63.150 -174.3196
20037.849609 0.000 -130.9341
